CODA Motion Analysis: throw0008.MDF [throw_1.stp]
Graph data: "export: scapula_humerus  *  Time"
Time	Marker Position																								Vector Angle		
Time	distal_hand.X	distal_hand.Y	distal_hand.Z	proximal_hand.X	proximal_hand.Y	proximal_hand.Z	distal_radius.X	distal_radius.Y	distal_radius.Z	proximal_radius.X	proximal_radius.Y	proximal_radius.Z	distal_humerus.X	distal_humerus.Y	distal_humerus.Z	proxinmal_humerus.X	proxinmal_humerus.Y	proxinmal_humerus.Z	distal_scapula.X	distal_scapula.Y	distal_scapula.Z	proximal_scapula.X	proximal_scapula.Y	proximal_scapula.Z	wrist__forearm	foream_arm	scapula_humerus
(s)	(mm)	(mm)	(mm)	(mm)	(mm)	(mm)	(mm)	(mm)	(mm)	(mm)	(mm)	(mm)	(mm)	(mm)	(mm)	(mm)	(mm)	(mm)	(mm)	(mm)	(mm)	(mm)	(mm)	(mm)	(deg)	(deg)	(deg)
0.00000	629.39	-245.05	477.15	607.24	-230.84	530.22	592.72	-213.78	557.62	373.32	-259.38	718.33	362.88	-261.55	731.69	334.54	-242.99	1055.43	335.89	-222.32	1091.01	254.61	-213.34	1016.25	-31.12	131.23	52.40
0.00500	629.39	-245.05	477.14	607.18	-230.85	530.23	592.74	-213.81	557.65	373.37	-259.37	718.34	362.97	-261.57	731.71	334.55	-242.95	1055.45	335.90	-222.35	1091.02	254.58	-213.39	1016.23	-31.08	131.24	52.41
0.01000	629.43	-245.02	477.12	607.21	-230.85	530.22	592.81	-213.84	557.67	373.42	-259.39	718.36	363.03	-261.60	731.73	334.55	-242.94	1055.50	335.92	-222.36	1091.02	254.57	-213.49	1016.27	-31.07	131.25	52.45
0.01500	629.43	-245.01	477.08	607.16	-230.83	530.21	592.81	-213.82	557.70	373.49	-259.39	718.37	363.07	-261.57	731.75	334.54	-242.91	1055.50	335.88	-222.35	1091.01	254.54	-213.50	1016.28	-31.03	131.26	52.46
0.02000	629.43	-245.02	477.07	607.17	-230.82	530.18	592.78	-213.81	557.62	373.45	-259.41	718.35	363.05	-261.57	731.77	334.56	-242.89	1055.51	335.87	-222.34	1091.03	254.52	-213.47	1016.27	-31.03	131.27	52.45
0.02500	629.38	-245.02	477.08	607.12	-230.83	530.17	592.69	-213.83	557.63	373.47	-259.40	718.35	363.04	-261.58	731.77	334.57	-242.91	1055.49	335.90	-222.32	1091.04	254.54	-213.40	1016.25	-31.01	131.27	52.44
0.03000	629.38	-245.04	477.06	607.10	-230.84	530.15	592.69	-213.82	557.63	373.37	-259.39	718.35	363.09	-261.57	731.80	334.61	-242.92	1055.49	335.96	-222.29	1091.06	254.57	-213.41	1016.29	-31.00	131.26	52.46
0.03500	629.40	-245.04	477.04	607.09	-230.86	530.15	592.79	-213.82	557.67	373.37	-259.38	718.37	363.01	-261.58	731.77	334.57	-242.95	1055.46	335.93	-222.33	1091.05	254.60	-213.43	1016.31	-30.99	131.24	52.44
0.04000	629.39	-245.03	477.03	607.09	-230.85	530.14	592.83	-213.79	557.62	373.35	-259.39	718.39	362.96	-261.58	731.75	334.56	-242.92	1055.45	335.87	-222.32	1091.04	254.61	-213.39	1016.30	-31.01	131.24	52.40
0.04500	629.42	-245.05	477.04	607.06	-230.86	530.16	592.87	-213.75	557.65	373.40	-259.39	718.38	362.92	-261.58	731.74	334.64	-242.89	1055.46	335.87	-222.32	1091.04	254.62	-213.35	1016.21	-30.95	131.21	52.35
0.05000	629.40	-245.08	477.07	607.08	-230.83	530.19	592.72	-213.75	557.65	373.41	-259.38	718.38	362.96	-261.56	731.75	334.69	-242.91	1055.51	335.91	-222.37	1091.03	254.62	-213.43	1016.20	-30.97	131.23	52.36
0.05500	629.40	-245.06	477.09	607.10	-230.88	530.25	592.65	-213.81	557.66	373.39	-259.38	718.38	362.99	-261.54	731.75	334.70	-242.92	1055.52	335.98	-222.34	1091.04	254.60	-213.53	1016.21	-31.01	131.24	52.39
0.06000	629.36	-245.05	477.10	607.13	-230.87	530.24	592.58	-213.84	557.59	373.37	-259.39	718.42	362.99	-261.53	731.74	334.73	-242.94	1055.51	336.00	-222.31	1091.07	254.63	-213.53	1016.22	-31.03	131.26	52.38
0.06500	629.37	-245.06	477.09	607.08	-230.86	530.20	592.63	-213.81	557.57	373.40	-259.35	718.43	363.05	-261.47	731.75	334.73	-242.95	1055.50	336.07	-222.30	1091.09	254.68	-213.47	1016.24	-30.96	131.27	52.39
0.07000	629.39	-245.08	477.07	607.09	-230.87	530.14	592.66	-213.80	557.58	373.42	-259.35	718.44	363.08	-261.49	731.76	334.77	-242.94	1055.50	336.10	-222.28	1091.10	254.69	-213.42	1016.26	-30.94	131.27	52.41
0.07500	629.40	-245.08	477.07	607.07	-230.87	530.18	592.69	-213.82	557.64	373.42	-259.36	718.38	363.09	-261.49	731.76	334.73	-242.95	1055.48	336.13	-222.31	1091.07	254.66	-213.41	1016.33	-30.95	131.25	52.48
0.08000	629.39	-245.05	477.05	607.06	-230.86	530.20	592.67	-213.80	557.72	373.40	-259.40	718.36	363.08	-261.46	731.77	334.77	-242.92	1055.48	336.08	-222.32	1091.05	254.64	-213.48	1016.37	-30.98	131.23	52.48
0.08500	629.39	-245.05	477.03	607.05	-230.84	530.20	592.62	-213.78	557.70	373.39	-259.42	718.33	363.04	-261.48	731.77	334.83	-242.85	1055.50	336.06	-222.34	1091.03	254.66	-213.52	1016.36	-30.98	131.21	52.45
0.09000	629.38	-245.04	477.08	607.03	-230.82	530.15	592.56	-213.74	557.62	373.36	-259.41	718.36	362.98	-261.49	731.78	334.82	-242.84	1055.51	336.09	-222.31	1091.04	254.74	-213.53	1016.30	-30.91	131.23	52.39
0.09500	629.36	-245.02	477.11	607.08	-230.82	530.13	592.53	-213.80	557.57	373.37	-259.36	718.41	362.92	-261.48	731.77	334.79	-242.88	1055.52	336.09	-222.29	1091.06	254.73	-213.53	1016.29	-30.93	131.24	52.39
0.10000	629.35	-245.01	477.09	607.07	-230.81	530.15	592.52	-213.84	557.58	373.36	-259.39	718.48	362.91	-261.42	731.77	334.72	-242.91	1055.53	336.08	-222.24	1091.06	254.72	-213.49	1016.31	-30.93	131.26	52.40
0.10500	629.37	-245.00	477.09	607.10	-230.87	530.15	592.54	-213.83	557.58	373.40	-259.38	718.49	362.98	-261.42	731.78	334.76	-242.92	1055.53	336.10	-222.20	1091.07	254.68	-213.41	1016.35	-30.94	131.27	52.44
0.11000	629.38	-245.04	477.09	607.13	-230.79	530.19	592.54	-213.79	557.49	373.41	-259.37	718.49	363.00	-261.40	731.79	334.76	-242.88	1055.54	336.12	-222.21	1091.07	254.71	-213.30	1016.36	-30.96	131.29	52.44
0.11500	629.38	-245.04	477.13	607.13	-230.76	530.19	592.63	-213.72	557.58	373.37	-259.35	718.47	363.03	-261.42	731.82	334.79	-242.86	1055.56	336.16	-222.17	1091.09	254.74	-213.29	1016.31	-30.98	131.26	52.42
0.12000	629.32	-245.03	477.09	607.09	-230.74	530.21	592.62	-213.71	557.65	373.37	-259.37	718.49	363.03	-261.43	731.81	334.81	-242.82	1055.59	336.14	-222.15	1091.07	254.76	-213.37	1016.29	-31.02	131.25	52.40
0.12500	629.32	-245.00	477.06	607.04	-230.73	530.23	592.61	-213.73	557.70	373.25	-259.37	718.47	363.08	-261.43	731.82	334.87	-242.82	1055.60	336.12	-222.14	1091.07	254.78	-213.39	1016.25	-31.03	131.22	52.37
0.13000	629.39	-245.01	477.11	607.04	-230.74	530.20	592.57	-213.74	557.61	373.19	-259.35	718.45	363.07	-261.40	731.81	334.88	-242.84	1055.59	336.13	-222.09	1091.08	254.77	-213.43	1016.29	-30.92	131.22	52.38
0.13500	629.39	-245.06	477.08	607.07	-230.76	530.14	592.60	-213.76	557.62	373.20	-259.35	718.41	363.09	-261.38	731.84	334.85	-242.85	1055.58	336.08	-222.07	1091.09	254.78	-213.46	1016.36	-30.95	131.22	52.40
0.14000	629.36	-245.05	477.08	607.07	-230.73	530.06	592.68	-213.76	557.63	373.32	-259.33	718.44	363.08	-261.32	731.86	334.84	-242.90	1055.56	336.13	-222.05	1091.08	254.76	-213.44	1016.42	-30.94	131.23	52.45
0.14500	629.30	-245.06	477.02	607.06	-230.71	530.09	592.76	-213.80	557.67	373.46	-259.33	718.48	363.13	-261.30	731.90	334.86	-242.93	1055.55	336.09	-222.05	1091.08	254.80	-213.46	1016.43	-31.02	131.24	52.43
0.15000	629.30	-245.06	477.04	607.09	-230.72	530.13	592.80	-213.75	557.69	373.46	-259.35	718.52	363.12	-261.30	731.87	334.90	-242.89	1055.57	336.06	-222.05	1091.09	254.81	-213.51	1016.42	-31.05	131.23	52.40
0.15500	629.31	-245.03	477.07	607.13	-230.74	530.20	592.83	-213.73	557.75	373.47	-259.31	718.53	363.06	-261.30	731.83	334.85	-242.87	1055.59	335.98	-222.06	1091.09	254.84	-213.57	1016.40	-31.10	131.22	52.35
0.16000	629.30	-245.03	477.10	607.15	-230.71	530.16	592.81	-213.72	557.68	373.40	-259.31	718.51	362.99	-261.32	731.78	334.85	-242.81	1055.63	335.99	-222.06	1091.11	254.83	-213.53	1016.42	-31.10	131.21	52.34
0.16500	629.34	-244.99	477.12	607.17	-230.73	530.17	592.86	-213.76	557.66	373.43	-259.33	718.49	363.01	-261.31	731.79	334.88	-242.86	1055.62	336.01	-222.04	1091.13	254.85	-213.53	1016.41	-31.08	131.20	52.33
0.17000	629.38	-244.99	477.08	607.18	-230.76	530.16	592.85	-213.79	557.63	373.43	-259.31	718.49	363.08	-261.28	731.82	334.95	-242.85	1055.58	336.05	-222.07	1091.13	254.85	-213.55	1016.41	-31.06	131.21	52.34
0.17500	629.39	-245.01	477.03	607.16	-230.80	530.23	592.81	-213.79	557.67	373.48	-259.31	718.51	363.07	-261.27	731.82	334.94	-242.88	1055.56	336.10	-222.06	1091.13	254.82	-213.48	1016.40	-31.07	131.22	52.37
0.18000	629.36	-245.02	477.01	607.12	-230.80	530.24	592.71	-213.81	557.62	373.47	-259.31	718.52	363.08	-261.27	731.84	334.87	-242.89	1055.51	336.14	-222.07	1091.14	254.82	-213.59	1016.35	-31.04	131.26	52.38
0.18500	629.34	-245.03	477.05	607.13	-230.82	530.21	592.62	-213.76	557.62	373.50	-259.29	718.50	363.05	-261.27	731.81	334.87	-242.86	1055.51	336.19	-222.11	1091.14	254.80	-213.58	1016.34	-31.04	131.26	52.39
0.19000	629.34	-245.00	477.08	607.13	-230.80	530.19	592.60	-213.76	557.65	373.47	-259.26	718.48	363.08	-261.26	731.84	334.87	-242.87	1055.50	336.22	-222.09	1091.12	254.82	-213.56	1016.36	-31.02	131.26	52.42
0.19500	629.38	-245.02	477.08	607.12	-230.83	530.19	592.60	-213.79	557.70	373.40	-259.24	718.47	363.08	-261.28	731.81	334.89	-242.82	1055.53	336.24	-222.09	1091.10	254.83	-213.56	1016.43	-31.00	131.23	52.45
0.20000	629.39	-244.97	477.09	607.07	-230.85	530.18	592.65	-213.76	557.69	373.35	-259.21	718.47	363.16	-261.25	731.84	334.88	-242.78	1055.53	336.21	-222.10	1091.09	254.84	-213.58	1016.48	-30.94	131.24	52.47
0.20500	629.38	-244.97	477.12	607.08	-230.83	530.21	592.67	-213.75	557.64	373.37	-259.16	718.49	363.15	-261.24	731.82	334.89	-242.73	1055.52	336.19	-222.08	1091.08	254.81	-213.62	1016.46	-30.96	131.25	52.47
0.21000	629.35	-244.98	477.12	607.06	-230.82	530.20	592.70	-213.71	557.65	373.41	-259.17	718.49	363.11	-261.24	731.82	334.90	-242.72	1055.54	336.21	-222.09	1091.09	254.78	-213.62	1016.47	-30.96	131.24	52.48
0.21500	629.30	-245.00	477.14	607.03	-230.82	530.21	592.66	-213.73	557.65	373.40	-259.15	718.47	363.02	-261.19	731.80	334.87	-242.82	1055.56	336.29	-222.11	1091.10	254.79	-213.67	1016.48	-30.97	131.23	52.49
0.22000	629.28	-244.98	477.11	606.96	-230.82	530.18	592.69	-213.72	557.64	373.37	-259.15	718.46	362.98	-261.16	731.80	334.82	-242.80	1055.60	336.30	-222.14	1091.13	254.84	-213.65	1016.55	-30.94	131.22	52.50
0.22500	629.23	-244.98	477.10	606.93	-230.80	530.16	592.70	-213.71	557.62	373.29	-259.17	718.43	362.94	-261.13	731.81	334.83	-242.80	1055.57	336.29	-222.17	1091.14	254.87	-213.55	1016.56	-30.96	131.20	52.47
0.23000	629.20	-244.96	477.04	606.93	-230.82	530.18	592.77	-213.76	557.55	373.17	-259.10	718.45	362.93	-261.12	731.82	334.93	-242.78	1055.59	336.26	-222.19	1091.16	254.92	-213.57	1016.56	-31.03	131.17	52.42
0.23500	629.16	-244.94	477.07	606.92	-230.82	530.18	592.68	-213.78	557.58	373.20	-259.06	718.47	362.86	-261.10	731.81	335.07	-242.76	1055.60	336.26	-222.18	1091.17	254.93	-213.51	1016.53	-31.03	131.15	52.36
0.24000	629.21	-244.93	477.07	606.93	-230.80	530.17	592.62	-213.80	557.58	373.33	-259.03	718.54	362.83	-261.11	731.80	335.11	-242.75	1055.61	336.32	-222.17	1091.20	254.92	-213.47	1016.50	-30.96	131.17	52.35
0.24500	629.23	-244.94	477.04	606.96	-230.83	530.14	592.63	-213.79	557.68	373.45	-259.02	718.55	362.77	-261.12	731.78	335.11	-242.73	1055.62	336.41	-222.20	1091.21	254.88	-213.47	1016.47	-30.97	131.16	52.37
0.25000	629.25	-244.94	477.01	607.05	-230.82	530.17	592.68	-213.80	557.71	373.40	-259.03	718.51	362.81	-261.13	731.81	335.06	-242.77	1055.59	336.41	-222.21	1091.19	254.81	-213.50	1016.51	-31.08	131.15	52.44
0.25500	629.13	-244.95	476.98	607.01	-230.84	530.16	592.71	-213.92	557.74	373.28	-259.08	718.46	362.84	-261.19	731.83	335.07	-242.79	1055.58	336.44	-222.22	1091.15	254.77	-213.53	1016.53	-31.20	131.12	52.48
0.26000	629.11	-244.98	476.98	607.04	-230.87	530.14	592.66	-214.00	557.70	373.22	-259.08	718.41	362.87	-261.20	731.85	335.04	-242.85	1055.56	336.46	-222.23	1091.11	254.76	-213.48	1016.55	-31.24	131.13	52.53
0.26500	629.03	-244.99	476.95	606.97	-230.89	530.11	592.56	-214.13	557.67	373.23	-259.08	718.43	362.85	-261.24	731.82	335.09	-242.81	1055.55	336.52	-222.22	1091.08	254.75	-213.45	1016.54	-31.22	131.14	52.55
0.27000	629.08	-244.99	476.93	607.06	-230.90	530.03	592.60	-214.19	557.62	373.26	-259.12	718.42	362.78	-261.30	731.77	335.16	-242.70	1055.54	336.57	-222.21	1091.03	254.71	-213.48	1016.59	-31.23	131.12	52.59
0.27500	629.01	-245.00	476.86	607.04	-230.95	529.99	592.66	-214.30	557.70	373.33	-259.19	718.41	362.78	-261.39	731.75	335.20	-242.67	1055.52	336.59	-222.16	1091.00	254.74	-213.58	1016.67	-31.31	131.10	52.63
0.28000	629.06	-245.02	476.80	607.15	-230.99	529.87	592.82	-214.43	557.74	373.33	-259.26	718.33	362.78	-261.47	731.72	335.17	-242.64	1055.47	336.60	-222.13	1090.92	254.74	-213.71	1016.66	-31.38	131.07	52.66
0.28500	629.05	-244.98	476.70	607.20	-231.03	529.85	592.88	-214.57	557.79	373.33	-259.38	718.25	362.82	-261.57	731.69	335.05	-242.66	1055.40	336.65	-222.14	1090.84	254.76	-213.69	1016.62	-31.48	131.07	52.72
0.29000	629.10	-244.96	476.62	607.27	-231.12	529.73	592.98	-214.73	557.70	373.33	-259.51	718.20	362.83	-261.67	731.62	335.06	-242.72	1055.29	336.73	-222.10	1090.73	254.73	-213.67	1016.59	-31.50	131.06	52.79
0.29500	629.15	-244.93	476.48	607.33	-231.23	529.65	593.06	-214.97	557.65	373.45	-259.68	718.21	362.92	-261.83	731.60	335.18	-242.71	1055.19	336.87	-222.06	1090.64	254.78	-213.71	1016.62	-31.52	131.07	52.86
0.30000	629.22	-244.91	476.35	607.44	-231.28	529.49	593.19	-215.17	557.62	373.65	-259.83	718.19	363.03	-262.02	731.55	335.29	-242.71	1055.12	337.04	-221.99	1090.53	254.86	-213.71	1016.70	-31.53	131.08	52.96
0.30500	629.32	-244.84	476.17	607.58	-231.44	529.43	593.30	-215.43	557.66	373.82	-260.03	718.13	363.21	-262.22	731.52	335.42	-242.69	1055.09	337.29	-221.92	1090.45	254.98	-213.70	1016.74	-31.62	131.08	53.07
0.31000	629.45	-244.78	476.02	607.74	-231.53	529.33	593.56	-215.66	557.64	373.93	-260.23	718.07	363.31	-262.41	731.46	335.57	-242.64	1055.04	337.53	-221.85	1090.36	255.11	-213.71	1016.77	-31.69	131.05	53.15
0.31500	629.63	-244.69	475.89	607.91	-231.69	529.28	593.73	-215.95	557.65	374.12	-260.49	718.06	363.48	-262.63	731.45	335.80	-242.64	1054.99	337.71	-221.81	1090.25	255.29	-213.79	1016.77	-31.71	131.04	53.17
0.32000	629.90	-244.64	475.84	608.13	-231.90	529.17	594.06	-216.25	557.56	374.40	-260.73	718.07	363.67	-262.86	731.42	336.03	-242.67	1054.93	337.84	-221.72	1090.14	255.46	-213.87	1016.82	-31.64	131.04	53.21
0.32500	630.24	-244.60	475.76	608.44	-232.15	529.12	594.31	-216.67	557.55	374.80	-260.97	718.11	364.02	-263.11	731.41	336.19	-242.74	1054.89	338.01	-221.65	1090.06	255.65	-213.90	1016.88	-31.59	131.10	53.30
0.33000	630.74	-244.58	475.71	608.86	-232.40	529.06	594.70	-217.03	557.52	375.20	-261.16	718.11	364.40	-263.39	731.42	336.48	-242.76	1054.89	338.22	-221.58	1089.98	255.79	-213.96	1016.95	-31.51	131.12	53.39
0.33500	631.38	-244.54	475.66	609.42	-232.70	529.10	595.03	-217.44	557.61	375.66	-261.66	718.13	364.84	-263.67	731.41	336.77	-242.79	1054.91	338.40	-221.48	1089.92	255.93	-213.90	1016.98	-31.47	131.15	53.47
0.34000	632.13	-244.54	475.71	610.03	-233.00	529.18	595.50	-217.86	557.69	376.15	-261.94	718.11	365.28	-263.95	731.39	337.05	-242.81	1054.91	338.46	-221.37	1089.86	256.01	-213.82	1017.04	-31.37	131.17	53.53
0.34500	632.97	-244.57	475.85	610.75	-233.35	529.42	596.14	-218.36	557.90	376.72	-262.20	718.09	365.78	-264.22	731.35	337.20	-242.73	1054.92	338.48	-221.31	1089.81	256.04	-213.88	1017.05	-31.34	131.18	53.62
0.35000	634.01	-244.63	476.13	611.60	-233.71	529.66	596.89	-218.84	558.07	377.30	-262.45	718.07	366.28	-264.46	731.34	337.29	-242.74	1054.86	338.48	-221.26	1089.74	255.98	-213.94	1017.05	-31.21	131.20	53.74
0.35500	635.22	-244.66	476.46	612.55	-234.10	529.96	597.77	-219.35	558.35	377.22	-262.67	717.79	366.79	-264.72	731.31	337.37	-242.71	1054.85	338.43	-221.20	1089.66	255.91	-213.94	1016.97	-31.17	131.06	53.82
0.36000	636.72	-244.72	476.93	613.66	-234.49	530.37	598.60	-219.87	558.57	377.67	-262.88	717.76	367.34	-264.97	731.28	337.41	-242.70	1054.83	338.28	-221.14	1089.54	255.83	-214.03	1016.83	-30.89	131.06	53.88
0.36500	638.32	-244.88	477.53	614.83	-234.97	530.87	599.58	-220.38	558.98	378.33	-263.36	717.79	367.92	-265.20	731.23	337.37	-242.70	1054.78	338.09	-221.10	1089.41	255.75	-214.01	1016.68	-30.57	131.06	53.94
0.37000	640.14	-245.07	478.35	616.18	-235.40	531.47	600.62	-220.92	559.42	379.73	-263.57	718.10	368.55	-265.43	731.21	337.31	-242.72	1054.66	337.86	-221.08	1089.25	255.61	-214.00	1016.50	-30.03	131.21	54.02
0.37500	642.08	-245.66	479.23	617.54	-235.87	532.08	601.75	-221.51	559.91	380.59	-263.74	718.13	369.22	-265.67	731.22	337.08	-242.72	1054.47	337.65	-221.11	1089.07	255.45	-213.93	1016.34	-29.51	131.26	54.18
0.38000	644.24	-245.90	480.23	618.93	-236.37	532.80	602.87	-222.07	560.39	381.34	-263.94	718.12	369.92	-265.85	731.23	336.87	-242.70	1054.27	337.38	-221.14	1088.84	255.25	-213.93	1016.15	-28.84	131.29	54.33
0.38500	646.53	-246.62	481.40	620.46	-236.90	533.63	604.09	-222.71	560.93	381.43	-264.16	717.84	370.62	-266.01	731.20	336.58	-242.73	1054.03	337.06	-221.18	1088.60	255.03	-213.84	1015.94	-28.31	131.19	54.49
0.39000	648.91	-247.38	482.77	622.14	-237.49	534.57	605.46	-223.40	561.66	382.17	-264.07	717.83	371.35	-266.17	731.14	336.38	-242.77	1053.79	336.78	-221.27	1088.32	254.73	-213.85	1015.70	-27.71	131.15	54.68
0.39500	650.57	-247.83	484.13	623.97	-238.07	535.66	606.89	-224.60	562.45	383.05	-264.20	717.80	372.17	-266.29	731.05	336.04	-242.81	1053.50	336.40	-221.38	1088.02	254.37	-213.95	1015.34	-27.93	131.16	54.85
0.40000	653.19	-248.29	485.77	625.83	-238.65	536.81	608.44	-225.23	563.33	384.68	-264.31	718.03	373.04	-266.42	730.93	335.58	-242.94	1053.16	336.03	-221.51	1087.71	254.00	-213.89	1015.01	-27.15	131.29	55.09
0.40500	655.08	-248.85	487.42	627.77	-239.27	538.05	609.96	-225.87	564.28	385.81	-264.40	718.06	373.91	-266.52	730.81	335.09	-243.07	1052.79	335.53	-221.67	1087.36	253.59	-213.86	1014.61	-27.20	131.33	55.27
0.41000	657.90	-249.50	489.27	629.79	-239.99	539.36	611.66	-226.59	565.32	386.86	-264.50	718.01	374.73	-266.58	730.70	334.65	-243.25	1052.41	335.04	-221.86	1087.01	253.24	-213.87	1014.22	-26.51	131.29	55.44
0.41500	660.82	-250.25	491.23	631.93	-240.72	540.77	612.36	-227.38	566.12	387.81	-264.57	717.95	375.67	-266.64	730.63	334.24	-243.49	1052.04	334.48	-222.09	1086.64	252.85	-213.85	1013.74	-25.68	131.41	55.58
0.42000	664.60	-250.98	493.33	634.13	-241.49	542.23	614.05	-228.14	567.09	388.79	-264.38	717.84	376.69	-266.71	730.56	333.71	-243.70	1051.61	333.93	-222.31	1086.28	252.45	-213.88	1013.25	-24.29	131.42	55.76
0.42500	668.43	-251.77	495.62	636.37	-242.31	543.73	615.86	-228.96	568.12	389.84	-264.42	717.79	377.69	-266.75	730.45	333.14	-243.87	1051.18	333.38	-222.55	1085.88	252.03	-213.89	1012.80	-22.81	131.42	55.97
0.43000	671.39	-252.24	497.76	638.59	-243.14	545.29	618.71	-229.76	569.47	390.94	-264.51	717.70	378.66	-266.79	730.32	332.57	-244.10	1050.72	332.89	-222.81	1085.48	251.56	-213.99	1012.37	-22.33	131.24	56.23
0.43500	674.42	-253.07	500.05	640.86	-243.99	546.87	620.69	-230.61	570.71	392.05	-264.56	717.62	379.59	-266.87	730.15	332.09	-244.38	1050.29	332.31	-223.09	1085.06	251.16	-214.03	1011.91	-21.65	131.16	56.41
0.44000	677.40	-253.53	502.24	643.20	-244.89	548.45	622.61	-231.43	571.84	393.12	-264.61	717.52	380.63	-266.93	729.99	331.63	-244.66	1049.84	331.68	-223.40	1084.65	250.72	-214.16	1011.37	-21.09	131.12	56.56
0.44500	680.42	-254.03	504.44	645.52	-245.79	549.97	624.61	-232.28	573.05	394.15	-264.72	717.41	381.67	-267.00	729.80	331.10	-244.95	1049.37	330.98	-223.72	1084.23	250.36	-214.21	1010.77	-20.47	131.06	56.65
0.45000	683.34	-254.89	506.56	647.78	-246.71	551.51	626.68	-232.60	574.16	395.26	-264.82	717.32	382.76	-267.07	729.64	330.53	-245.27	1048.87	330.36	-224.06	1083.81	249.98	-214.23	1010.20	-19.91	131.03	56.81
0.45500	686.21	-255.80	508.60	649.92	-247.68	552.96	628.76	-233.55	575.36	396.41	-264.98	717.22	383.87	-267.13	729.49	329.98	-245.58	1048.42	329.80	-224.40	1083.40	249.57	-214.32	1009.61	-19.31	131.00	56.99
0.46000	689.03	-256.65	510.59	652.08	-248.67	554.39	630.79	-234.52	576.43	397.65	-265.13	717.19	385.00	-267.21	729.35	329.43	-245.87	1047.99	329.21	-224.71	1082.99	249.16	-214.36	1009.08	-18.73	131.02	57.17
0.46500	691.79	-257.53	512.46	654.18	-249.85	555.70	632.78	-235.48	577.55	398.91	-265.29	717.21	386.09	-267.25	729.23	328.87	-246.14	1047.56	328.53	-225.06	1082.61	248.79	-214.46	1008.48	-18.14	131.03	57.28
0.47000	694.54	-258.39	514.28	656.27	-251.07	556.95	634.66	-236.39	578.56	400.14	-265.45	717.24	387.17	-267.35	729.12	328.28	-246.41	1047.16	327.83	-225.41	1082.21	248.40	-214.53	1007.89	-17.51	131.09	57.40
0.47500	697.20	-259.67	516.02	658.32	-252.04	558.13	636.56	-237.38	579.61	401.37	-265.60	717.28	388.30	-267.44	729.05	327.72	-246.70	1046.74	327.16	-226.09	1081.86	247.97	-214.58	1007.27	-16.95	131.14	57.51
0.48000	699.75	-260.52	517.75	660.40	-253.25	559.33	638.39	-238.31	580.53	402.51	-265.78	717.32	389.47	-267.57	729.00	327.12	-247.04	1046.36	326.45	-226.56	1081.49	247.53	-214.78	1006.70	-16.47	131.22	57.66
0.48500	702.20	-261.37	519.49	661.97	-254.24	560.41	640.24	-239.30	581.52	403.77	-265.96	717.35	390.59	-267.67	728.93	326.47	-247.36	1045.95	325.74	-226.94	1081.16	247.13	-214.94	1006.21	-15.61	131.31	57.80
0.49000	704.56	-262.65	521.18	663.48	-255.24	561.53	642.12	-240.31	582.48	405.06	-266.11	717.39	391.69	-267.80	728.88	325.85	-247.70	1045.59	325.09	-227.29	1080.82	246.73	-215.05	1005.78	-14.85	131.39	57.98
0.49500	705.92	-263.91	522.63	665.46	-256.17	562.80	644.01	-241.26	583.53	406.38	-266.23	717.44	392.82	-267.90	728.83	325.25	-248.02	1045.24	323.86	-227.68	1080.28	246.32	-215.19	1005.38	-15.39	131.46	58.05
0.50000	708.25	-265.15	524.26	667.45	-257.14	564.08	645.97	-242.13	584.60	407.56	-266.41	717.49	394.08	-268.01	728.88	324.71	-248.39	1044.95	323.12	-228.08	1079.93	245.93	-215.45	1005.00	-15.18	131.51	58.23
0.50500	710.56	-266.44	525.90	669.92	-258.06	565.53	647.79	-243.06	585.72	408.71	-266.59	717.54	395.28	-268.14	728.90	324.15	-248.74	1044.63	322.55	-228.48	1079.64	245.57	-215.74	1004.64	-15.41	131.57	58.44
0.51000	712.80	-267.73	527.56	671.87	-258.96	566.87	649.60	-243.98	586.90	409.87	-266.74	717.57	396.48	-268.30	728.95	323.71	-249.09	1044.35	322.61	-228.86	1079.57	245.26	-215.97	1004.26	-15.25	131.59	58.76
0.51500	713.99	-269.03	529.07	674.32	-259.84	568.37	651.29	-244.87	588.04	411.06	-266.90	717.66	397.60	-268.42	728.98	323.19	-249.46	1044.06	322.30	-229.30	1079.36	244.94	-216.30	1003.93	-16.38	131.64	59.01
0.52000	715.16	-269.84	530.56	676.21	-260.49	569.80	653.07	-245.74	589.23	412.28	-267.10	717.80	398.76	-268.57	729.05	322.74	-249.86	1043.81	321.87	-229.74	1079.12	244.71	-216.63	1003.65	-17.11	131.68	59.21
0.52500	717.33	-270.64	532.36	678.15	-261.35	571.23	654.83	-246.56	590.42	413.51	-267.27	718.01	399.87	-268.71	729.13	322.29	-250.25	1043.57	321.51	-230.16	1078.92	244.48	-216.94	1003.37	-16.91	131.72	59.41
0.53000	719.44	-271.02	534.20	679.97	-262.43	572.72	656.61	-247.37	591.77	414.69	-267.41	718.24	401.02	-268.85	729.28	322.03	-250.70	1043.34	321.12	-230.30	1078.72	244.25	-217.33	1003.04	-16.70	131.72	59.56
0.53500	721.53	-271.80	536.14	681.77	-263.31	574.19	658.33	-248.19	593.07	415.85	-267.55	718.49	402.11	-268.96	729.43	321.70	-251.10	1043.13	320.76	-230.66	1078.56	244.01	-217.63	1002.75	-16.39	131.73	59.74
0.54000	724.57	-272.96	538.16	683.50	-264.36	575.71	659.98	-248.93	594.37	416.92	-267.67	718.76	403.09	-269.08	729.56	321.42	-251.53	1042.94	320.47	-231.08	1078.40	243.81	-217.90	1002.56	-15.33	131.71	59.91
0.54500	727.59	-273.74	540.17	684.77	-265.41	577.07	661.58	-249.64	595.54	418.01	-267.83	719.03	404.08	-269.17	729.72	321.14	-251.93	1042.81	320.25	-231.53	1078.26	243.71	-218.28	1002.42	-13.87	131.72	60.10
0.55000	730.61	-274.48	542.14	686.01	-266.21	578.43	663.10	-250.41	596.72	418.96	-267.97	719.23	405.08	-269.29	729.88	321.08	-252.36	1042.71	320.05	-231.98	1078.12	243.63	-218.62	1002.27	-12.49	131.68	60.25
0.55500	732.55	-274.80	544.01	687.10	-267.19	579.78	664.63	-251.15	597.93	419.93	-268.05	719.40	406.13	-269.38	730.08	320.98	-252.76	1042.61	319.84	-232.44	1077.99	243.62	-218.94	1002.10	-11.80	131.64	60.37
0.56000	733.52	-275.56	545.68	688.58	-267.98	581.26	666.12	-251.88	599.13	420.83	-268.09	719.58	407.07	-269.46	730.23	320.89	-253.16	1042.52	319.60	-232.88	1077.88	243.61	-219.29	1001.91	-12.21	131.58	60.44
0.56500	734.41	-276.23	547.44	690.02	-268.74	582.72	667.53	-252.52	600.36	421.80	-268.10	719.77	407.97	-269.48	730.40	320.74	-253.58	1042.45	319.35	-233.34	1077.81	243.61	-219.76	1001.72	-12.57	131.53	60.49
0.57000	735.27	-276.86	549.19	691.94	-269.75	584.27	668.85	-253.15	601.54	422.74	-268.12	719.96	408.87	-269.53	730.59	320.68	-254.05	1042.41	319.20	-233.78	1077.76	243.60	-220.18	1001.57	-13.30	131.49	60.57
0.57500	737.99	-277.88	551.29	693.39	-270.52	585.69	670.08	-253.78	602.75	423.65	-268.10	720.14	409.73	-269.60	730.73	320.66	-254.50	1042.36	319.14	-234.21	1077.75	243.60	-220.49	1001.47	-12.17	131.42	60.67
0.58000	739.72	-278.89	553.24	695.26	-271.28	587.24	671.37	-254.44	603.95	424.42	-268.04	720.29	410.52	-269.65	730.86	320.63	-254.93	1042.33	319.14	-234.65	1077.73	243.68	-220.91	1001.39	-12.18	131.32	60.76
0.58500	741.44	-279.91	555.07	696.57	-271.99	588.67	672.65	-255.09	605.16	425.18	-268.06	720.41	411.30	-269.67	730.96	320.68	-255.31	1042.32	319.11	-235.09	1077.70	243.75	-221.35	1001.34	-11.86	131.20	60.85
0.59000	742.15	-280.85	556.69	697.76	-272.67	590.09	673.95	-255.66	606.31	425.91	-268.03	720.53	412.05	-269.66	731.12	320.72	-255.73	1042.33	319.07	-235.53	1077.68	243.82	-221.75	1001.31	-12.23	131.08	60.93
0.59500	743.82	-281.35	558.31	698.89	-273.31	591.45	675.20	-256.25	607.46	426.65	-267.98	720.68	412.81	-269.64	731.28	320.78	-256.18	1042.34	319.00	-235.98	1077.66	243.84	-222.17	1001.23	-11.92	130.97	61.00
0.60000	745.40	-281.83	559.94	699.53	-273.67	592.72	676.42	-256.79	608.62	427.37	-267.96	720.85	413.50	-269.63	731.46	320.90	-256.62	1042.34	318.96	-236.43	1077.68	243.86	-222.64	1001.19	-11.29	130.85	61.07
0.60500	746.95	-282.27	561.56	700.71	-274.56	594.03	677.63	-257.29	609.89	428.06	-267.94	721.06	414.18	-269.62	731.61	320.95	-257.04	1042.36	318.96	-236.87	1077.70	243.88	-223.25	1001.22	-11.07	130.71	61.17
0.61000	748.46	-283.20	563.11	701.31	-274.94	595.24	678.75	-257.82	611.08	428.71	-267.92	721.24	414.79	-269.61	731.78	321.05	-257.45	1042.39	318.92	-237.27	1077.72	243.93	-223.74	1001.27	-10.50	130.57	61.24
0.61500	749.93	-283.60	564.65	702.34	-275.80	596.50	679.76	-258.31	612.25	429.32	-267.93	721.44	415.40	-269.63	731.90	321.04	-257.90	1042.46	318.86	-237.70	1077.76	243.95	-224.26	1001.24	-10.23	130.46	61.29
0.62000	751.30	-284.10	566.11	703.73	-276.40	597.85	680.74	-258.75	613.35	429.97	-267.97	721.64	415.99	-269.65	732.09	321.06	-258.35	1042.52	318.73	-238.13	1077.78	243.93	-224.77	1001.21	-10.36	130.36	61.33
0.62500	752.58	-284.53	567.52	704.68	-276.68	599.07	681.66	-259.24	614.45	430.64	-267.99	721.86	416.65	-269.65	732.29	321.00	-258.78	1042.57	318.65	-238.59	1077.84	243.89	-225.30	1001.32	-10.21	130.30	61.47
0.63000	753.75	-285.04	568.95	706.05	-277.48	600.37	682.63	-259.68	615.51	431.23	-268.01	722.13	417.28	-269.68	732.53	320.95	-259.20	1042.59	318.60	-239.05	1077.88	243.87	-225.86	1001.40	-10.39	130.24	61.59
0.63500	754.90	-285.52	570.32	706.47	-277.75	601.48	683.59	-260.10	616.59	431.78	-268.11	722.36	417.89	-269.70	732.75	320.94	-259.69	1042.65	318.54	-239.51	1077.93	243.86	-226.33	1001.46	-9.98	130.15	61.69
0.64000	755.95	-285.98	571.72	707.82	-278.31	602.69	684.52	-260.53	617.62	432.35	-268.11	722.63	418.45	-269.77	732.95	320.94	-260.16	1042.71	318.45	-239.95	1077.96	243.80	-226.79	1001.48	-10.15	130.08	61.78
0.64500	757.04	-286.49	572.94	708.61	-278.85	603.78	685.36	-260.95	618.60	432.95	-268.19	722.85	418.96	-269.87	733.14	320.83	-260.62	1042.76	318.37	-240.39	1078.00	243.69	-227.25	1001.56	-10.04	130.03	61.92
0.65000	758.03	-286.56	574.16	709.35	-279.10	604.77	686.11	-261.39	619.46	433.48	-268.30	723.08	419.45	-270.00	733.32	320.73	-261.05	1042.76	318.29	-240.87	1078.05	243.49	-227.80	1001.60	-9.86	130.00	62.07
0.65500	759.01	-287.10	575.23	710.03	-279.88	605.74	686.89	-261.82	620.33	434.05	-268.40	723.30	419.99	-270.10	733.51	320.58	-261.50	1042.77	318.18	-241.34	1078.10	243.36	-228.22	1001.63	-9.76	129.98	62.19
0.66000	759.85	-287.64	576.24	710.22	-280.09	606.55	687.65	-262.23	621.16	434.56	-268.50	723.48	420.56	-270.20	733.73	320.47	-261.96	1042.80	318.07	-241.76	1078.13	243.19	-228.61	1001.68	-9.40	129.96	62.35
0.66500	760.65	-288.16	577.11	710.83	-280.53	607.38	688.43	-262.64	621.94	435.10	-268.59	723.67	421.09	-270.35	733.91	320.32	-262.44	1042.80	317.94	-242.22	1078.12	243.08	-229.19	1001.70	-9.41	129.95	62.48
0.67000	762.22	-288.65	578.06	711.39	-280.74	608.09	689.14	-263.06	622.69	435.62	-268.71	723.82	421.52	-270.47	734.07	320.22	-262.87	1042.78	317.81	-242.67	1078.11	242.96	-229.64	1001.69	-8.83	129.91	62.58
0.67500	762.82	-289.12	578.80	712.02	-281.13	608.72	689.77	-263.50	623.34	436.13	-268.79	724.00	421.95	-270.63	734.22	320.07	-263.30	1042.75	317.70	-243.13	1078.09	242.86	-230.06	1001.66	-8.85	129.92	62.67
0.68000	763.38	-289.67	579.43	713.06	-281.85	609.36	690.27	-263.92	623.87	436.53	-268.92	724.14	422.39	-270.79	734.33	319.96	-263.74	1042.71	317.61	-243.56	1078.04	242.77	-230.50	1001.69	-9.18	129.93	62.80
0.68500	762.93	-290.21	579.83	713.64	-282.04	609.80	690.78	-264.39	624.30	436.88	-269.09	724.23	422.84	-270.91	734.42	319.88	-264.20	1042.66	317.54	-244.00	1078.00	242.66	-230.95	1001.75	-9.82	129.96	62.95
0.69000	763.36	-290.75	580.20	714.59	-282.73	610.30	691.27	-264.86	624.69	437.28	-269.21	724.30	423.21	-271.05	734.48	319.82	-264.61	1042.62	317.46	-244.47	1077.95	242.52	-231.41	1001.79	-10.27	129.96	63.09
0.69500	763.72	-291.28	580.53	715.05	-282.89	610.55	691.74	-265.28	625.05	437.71	-269.41	724.34	423.58	-271.15	734.52	319.71	-265.04	1042.52	317.39	-244.93	1077.89	242.38	-231.90	1001.79	-10.32	129.98	63.22
0.70000	764.08	-291.80	580.80	714.95	-283.31	610.71	692.17	-265.79	625.36	438.09	-269.62	724.39	423.89	-271.31	734.55	319.60	-265.46	1042.45	317.26	-245.41	1077.82	242.29	-232.42	1001.73	-10.04	130.00	63.29
0.70500	764.42	-292.76	581.14	715.24	-283.76	610.87	692.67	-266.20	625.59	438.50	-269.80	724.44	424.22	-271.47	734.55	319.53	-265.91	1042.36	317.18	-245.85	1077.73	242.24	-232.92	1001.68	-9.91	130.04	63.36
0.71000	764.74	-293.25	581.45	715.10	-284.30	610.96	693.14	-266.65	625.81	438.80	-269.98	724.48	424.50	-271.63	734.53	319.53	-266.36	1042.30	317.16	-246.31	1077.67	242.20	-233.55	1001.59	-9.53	130.04	63.41
0.71500	765.11	-293.80	581.73	715.87	-284.76	611.20	693.59	-267.13	625.94	439.12	-270.15	724.52	424.74	-271.80	734.46	319.47	-266.85	1042.19	317.16	-246.83	1077.60	242.16	-234.05	1001.53	-9.72	130.06	63.48
0.72000	765.44	-294.33	581.89	715.75	-285.64	611.16	693.83	-267.63	626.04	439.36	-270.32	724.55	425.07	-271.93	734.46	319.45	-267.34	1042.06	317.12	-247.30	1077.50	242.23	-234.44	1001.40	-9.34	130.11	63.49
0.72500	765.74	-294.89	581.96	716.53	-286.13	611.32	694.06	-268.11	626.02	439.76	-270.50	724.57	425.41	-272.12	734.44	319.41	-267.84	1041.93	317.03	-247.77	1077.38	242.32	-234.96	1001.28	-9.64	130.20	63.49
0.73000	766.03	-295.47	581.88	716.28	-286.95	611.24	694.27	-268.62	625.97	440.09	-270.71	724.54	425.72	-272.34	734.41	319.45	-268.32	1041.83	316.98	-248.24	1077.25	242.44	-235.48	1001.15	-9.35	130.27	63.47
0.73500	766.18	-296.05	581.81	716.95	-287.18	611.26	694.57	-269.12	625.90	440.34	-270.91	724.45	425.97	-272.53	734.33	319.46	-268.83	1041.73	316.97	-248.71	1077.13	242.56	-235.89	1001.01	-9.70	130.30	63.46
0.74000	766.29	-296.62	581.66	716.53	-287.71	611.09	694.81	-269.62	625.84	440.48	-271.13	724.33	426.16	-272.76	734.22	319.46	-269.31	1041.60	316.98	-249.20	1077.01	242.73	-236.39	1000.79	-9.43	130.31	63.39
0.74500	766.30	-297.23	581.50	717.16	-288.29	610.94	695.04	-270.11	625.75	440.66	-271.38	724.20	426.43	-272.99	734.13	319.55	-269.77	1041.46	317.03	-249.66	1076.85	242.87	-236.90	1000.52	-9.77	130.33	63.35
0.75000	766.35	-297.82	581.23	716.78	-289.15	610.63	695.09	-270.62	625.55	440.83	-271.60	724.07	426.62	-273.26	734.03	319.64	-270.23	1041.29	317.04	-250.13	1076.68	243.03	-237.34	1000.26	-9.49	130.38	63.28
0.75500	766.33	-298.46	580.95	717.39	-289.71	610.38	695.20	-271.10	625.33	441.00	-271.82	723.96	426.78	-273.52	733.88	319.77	-270.72	1041.12	317.09	-250.59	1076.49	243.17	-237.82	999.97	-9.82	130.41	63.21
0.76000	766.30	-299.16	580.59	717.55	-290.21	610.11	695.23	-271.59	625.04	441.17	-272.10	723.83	426.85	-274.08	733.69	319.88	-271.21	1040.95	317.15	-251.06	1076.31	243.34	-238.18	999.73	-9.94	130.44	63.14
0.76500	766.23	-299.84	580.20	717.62	-290.61	609.77	695.35	-272.06	624.72	441.35	-272.41	723.67	426.92	-274.70	733.45	320.02	-271.73	1040.77	317.26	-251.52	1076.10	243.47	-238.53	999.45	-10.03	130.47	63.09
0.77000	766.18	-300.46	579.67	717.13	-291.43	609.30	695.38	-272.54	624.34	441.49	-272.74	723.47	426.98	-275.06	733.23	320.09	-272.21	1040.55	317.34	-251.94	1075.85	243.59	-238.92	999.19	-9.81	130.51	63.07
0.77500	766.06	-301.13	579.15	716.59	-291.86	608.71	695.45	-273.04	623.95	441.58	-273.07	723.22	427.11	-275.42	733.01	320.18	-272.69	1040.28	317.35	-252.38	1075.57	243.72	-239.37	998.89	-9.51	130.54	63.03
0.78000	765.89	-301.80	578.58	716.99	-292.66	608.23	695.37	-273.51	623.46	441.61	-273.41	722.98	426.52	-275.73	732.53	320.25	-273.17	1040.01	317.37	-252.84	1075.28	243.85	-239.77	998.57	-9.81	130.48	62.85
0.78500	765.71	-302.38	577.98	717.01	-293.15	607.56	695.33	-273.98	622.86	441.78	-273.74	722.74	425.89	-276.34	732.00	320.44	-273.67	1039.76	317.41	-253.30	1074.98	243.93	-240.23	998.25	-9.77	130.42	62.68
0.79000	765.55	-302.96	577.26	716.92	-293.96	606.92	695.20	-274.42	622.22	441.91	-274.12	722.50	425.92	-276.77	731.67	320.54	-274.14	1039.48	317.47	-253.79	1074.65	243.95	-240.73	997.92	-9.78	130.50	62.67
0.79500	765.34	-303.58	576.53	716.33	-294.76	606.16	695.19	-275.33	621.62	441.98	-274.51	722.16	426.66	-277.18	731.60	320.65	-274.63	1039.18	317.47	-254.28	1074.31	243.94	-241.18	997.61	-9.50	130.67	62.81
0.80000	765.08	-304.14	575.72	716.12	-295.19	605.47	695.01	-276.38	620.98	441.94	-274.91	721.82	427.46	-277.59	731.55	320.68	-275.13	1038.84	317.48	-254.73	1073.95	243.95	-241.61	997.26	-9.55	130.89	62.96
0.80500	764.81	-304.74	574.86	715.91	-295.66	604.66	694.87	-277.40	620.26	441.90	-275.37	721.41	426.91	-278.01	731.03	320.73	-275.66	1038.47	317.49	-255.22	1073.60	243.95	-241.96	996.93	-9.56	130.85	62.86
0.81000	764.54	-305.26	573.87	715.72	-296.16	603.83	694.61	-278.42	619.42	441.88	-275.83	721.10	426.87	-278.41	730.66	320.65	-276.15	1038.07	317.52	-255.69	1073.26	243.95	-242.30	996.57	-9.62	130.98	62.87
0.81500	764.23	-305.78	572.91	715.41	-296.96	602.94	693.67	-279.45	618.30	441.86	-276.24	720.76	426.89	-278.54	730.36	320.59	-276.67	1037.68	317.49	-256.18	1072.93	243.98	-242.73	996.26	-9.46	131.22	62.87
0.82000	763.81	-306.30	571.91	715.15	-297.49	601.98	692.47	-280.07	617.19	441.82	-276.62	720.47	427.52	-278.62	730.24	320.48	-277.18	1037.31	317.43	-256.70	1072.59	244.02	-243.11	995.88	-9.33	131.61	62.96
0.82500	763.38	-306.81	570.90	714.79	-297.98	601.00	691.29	-280.58	616.07	441.80	-277.01	720.12	427.58	-278.99	729.95	320.46	-277.73	1036.93	317.39	-257.21	1072.26	244.07	-243.44	995.44	-9.14	131.87	62.90
0.83000	762.97	-307.31	569.77	714.39	-298.48	599.92	690.82	-281.04	615.17	441.74	-277.40	719.80	427.55	-279.39	729.60	320.43	-278.25	1036.56	317.33	-257.73	1071.92	244.17	-243.72	994.99	-9.04	132.02	62.80
0.83500	762.44	-307.86	568.73	713.90	-298.91	598.90	690.44	-281.47	614.07	441.60	-277.77	719.45	427.43	-280.04	729.26	320.36	-278.76	1036.24	317.30	-258.26	1071.64	244.30	-244.06	994.55	-8.91	132.18	62.67
0.84000	761.88	-308.40	567.63	713.40	-299.39	597.72	690.72	-281.95	613.20	441.40	-278.21	719.06	427.26	-280.19	728.89	320.33	-279.30	1035.97	317.28	-258.79	1071.35	244.46	-244.38	994.16	-8.82	132.21	62.53
0.84500	761.20	-308.97	566.50	712.89	-299.76	596.60	690.95	-282.40	612.24	441.06	-278.57	718.65	427.02	-280.55	728.55	320.33	-279.79	1035.74	317.29	-259.29	1071.10	244.69	-244.73	993.72	-8.87	132.22	62.33
0.85000	760.47	-309.43	565.32	712.20	-300.10	595.40	691.10	-282.92	611.28	440.77	-278.88	718.26	426.79	-280.85	728.22	320.40	-280.29	1035.49	317.26	-259.77	1070.86	244.95	-245.01	993.28	-8.79	132.24	62.09
0.85500	759.55	-309.96	564.15	711.43	-300.54	594.20	690.39	-283.35	609.94	440.40	-279.22	717.88	425.85	-281.19	727.63	320.46	-280.76	1035.25	317.20	-260.30	1070.66	245.20	-245.28	992.89	-8.63	132.26	61.71
0.86000	758.57	-310.44	562.87	710.59	-300.83	592.85	689.51	-283.19	608.59	440.06	-279.51	717.49	425.38	-281.51	727.26	320.59	-281.22	1035.04	317.24	-260.79	1070.48	245.37	-245.64	992.59	-8.41	132.39	61.50
0.86500	757.48	-310.95	561.47	709.79	-300.85	591.42	688.62	-283.59	607.18	439.63	-279.78	717.10	424.99	-281.79	726.93	320.74	-281.67	1034.84	317.34	-261.31	1070.30	245.57	-246.01	992.33	-8.31	132.52	61.33
0.87000	756.38	-311.46	559.85	708.83	-301.18	589.94	686.85	-283.95	605.51	439.13	-280.06	716.74	425.22	-282.06	726.82	321.00	-282.07	1034.64	317.50	-261.79	1070.11	245.72	-246.30	992.01	-8.15	132.88	61.29
0.87500	755.13	-312.03	558.20	707.79	-301.55	588.39	685.01	-284.83	603.76	438.55	-280.33	716.34	424.87	-282.35	726.49	321.23	-282.42	1034.40	317.58	-262.26	1069.88	245.80	-246.65	991.64	-7.98	133.15	61.14
0.88000	753.85	-312.65	556.36	706.61	-301.86	586.73	683.77	-285.18	602.05	437.95	-280.60	715.93	424.30	-282.60	726.11	321.45	-282.73	1034.16	317.70	-262.73	1069.65	245.86	-246.98	991.24	-7.89	133.32	60.96
0.88500	752.44	-312.81	554.41	705.91	-302.16	585.10	682.57	-285.55	600.31	437.34	-280.87	715.48	423.64	-282.82	725.71	321.60	-283.03	1033.89	317.70	-263.21	1069.42	245.98	-247.39	990.95	-8.25	133.48	60.75
0.89000	750.89	-312.90	552.36	704.60	-302.53	583.21	681.24	-286.53	598.28	436.66	-281.10	715.00	422.99	-282.82	725.25	321.72	-283.32	1033.63	317.76	-263.66	1069.16	246.14	-247.72	990.66	-8.17	133.69	60.55
0.89500	749.18	-313.09	550.21	703.14	-302.94	581.24	679.05	-287.51	596.14	435.89	-281.34	714.46	422.23	-282.99	724.76	321.86	-283.56	1033.37	317.79	-264.08	1068.88	246.24	-248.00	990.40	-8.04	133.96	60.37
0.90000	747.27	-313.21	547.92	701.01	-303.41	578.93	678.31	-288.51	594.15	435.02	-281.59	713.88	421.52	-283.19	724.28	321.96	-283.84	1033.08	317.82	-264.48	1068.55	246.30	-248.23	990.06	-7.62	134.07	60.21
0.90500	746.26	-313.83	545.63	699.30	-303.92	576.59	677.54	-288.45	592.19	434.16	-281.78	713.25	420.67	-283.41	723.74	322.10	-284.08	1032.75	317.86	-264.88	1068.22	246.38	-248.58	989.77	-6.96	134.14	60.03
0.91000	745.13	-314.38	543.10	697.45	-304.34	574.08	675.77	-288.31	589.74	433.15	-281.92	712.51	419.84	-283.58	723.14	322.14	-284.36	1032.37	317.92	-265.26	1067.84	246.48	-248.94	989.42	-6.18	134.37	59.86
0.91500	743.86	-314.59	540.40	695.45	-304.84	571.48	672.96	-288.78	586.97	432.14	-282.06	711.76	418.88	-283.76	722.47	322.16	-284.62	1031.97	318.02	-265.62	1067.43	246.56	-249.21	989.11	-5.30	134.75	59.73
0.92000	741.43	-315.23	537.23	693.24	-305.39	568.67	669.97	-288.70	583.95	431.08	-282.14	710.96	417.86	-283.97	721.77	322.24	-284.87	1031.50	318.10	-265.95	1066.96	246.61	-249.49	988.73	-5.12	135.15	59.58
0.92500	737.86	-315.85	533.68	690.92	-305.89	565.75	668.59	-288.71	581.33	429.92	-282.23	710.09	416.79	-284.16	720.98	322.33	-285.14	1030.98	318.18	-266.33	1066.46	246.66	-249.78	988.38	-5.99	135.29	59.44
0.93000	734.14	-316.45	529.79	688.47	-306.45	562.56	667.22	-288.66	578.59	428.61	-282.35	709.08	415.62	-284.33	720.13	322.49	-285.37	1030.43	318.29	-266.68	1065.89	246.75	-250.01	987.97	-6.99	135.38	59.26
0.93500	731.18	-317.01	526.04	685.85	-306.97	559.20	665.73	-289.18	575.77	427.16	-282.50	708.00	414.44	-284.47	719.20	322.56	-285.63	1029.79	318.45	-267.03	1065.27	246.80	-250.31	987.48	-7.19	135.48	59.13
0.94000	728.04	-317.98	522.05	683.55	-307.53	555.78	663.18	-289.72	572.49	425.73	-282.67	706.88	413.11	-284.60	718.22	322.54	-285.91	1029.09	318.65	-267.38	1064.59	246.79	-250.55	986.97	-7.66	135.75	59.04
0.94500	724.67	-319.04	518.03	680.65	-308.08	552.12	660.35	-289.67	569.08	424.22	-282.83	705.68	411.73	-284.67	717.15	322.59	-286.13	1028.30	318.87	-267.72	1063.87	246.66	-250.78	986.41	-7.71	136.03	58.98
0.95000	720.13	-320.09	513.52	677.51	-308.58	548.37	657.28	-289.59	565.54	422.64	-282.90	704.39	410.27	-284.74	716.01	322.63	-286.41	1027.44	318.96	-268.08	1063.07	246.54	-250.95	985.85	-8.66	136.33	58.88
0.95500	716.37	-321.15	509.10	673.69	-309.06	544.24	654.01	-290.23	561.85	420.95	-282.95	703.11	408.67	-284.83	714.78	322.76	-286.65	1026.52	319.02	-268.47	1062.22	246.45	-251.14	985.25	-8.24	136.63	58.72
0.96000	712.41	-321.80	504.42	670.10	-309.52	540.15	650.61	-290.80	558.03	419.12	-283.04	701.78	406.95	-284.97	713.46	322.75	-286.91	1025.55	319.03	-268.87	1061.30	246.37	-251.24	984.64	-8.33	136.94	58.56
0.96500	708.23	-322.16	499.70	666.35	-309.85	535.93	647.21	-291.39	554.07	417.23	-283.11	700.36	405.10	-285.08	712.04	322.70	-287.13	1024.49	319.09	-269.28	1060.36	246.28	-251.28	983.95	-8.40	137.24	58.39
0.97000	703.77	-322.88	494.86	662.41	-310.12	531.66	643.67	-292.00	550.04	415.17	-283.47	698.83	403.25	-285.17	710.57	322.59	-287.34	1023.40	319.12	-269.67	1059.37	246.14	-251.39	983.18	-8.59	137.53	58.23
0.97500	699.09	-323.17	489.89	658.29	-310.85	527.19	638.97	-292.57	545.75	413.09	-283.62	697.17	401.24	-285.23	709.09	322.45	-287.57	1022.27	319.17	-270.06	1058.37	246.01	-251.44	982.42	-8.60	137.96	58.05
0.98000	694.21	-323.83	484.79	653.97	-311.40	522.63	634.88	-293.07	541.63	410.85	-283.76	695.48	399.12	-285.26	707.58	322.28	-287.78	1021.16	319.27	-270.40	1057.34	245.82	-251.53	981.65	-8.77	138.25	57.91
0.98500	689.97	-324.42	479.80	649.99	-311.90	518.20	630.66	-293.59	537.50	408.52	-283.84	693.77	396.87	-285.28	705.99	322.09	-288.00	1020.01	319.37	-270.76	1056.28	245.59	-251.51	980.87	-8.72	138.52	57.77
0.99000	685.48	-324.71	474.76	645.74	-312.41	513.69	627.30	-294.11	533.47	405.32	-283.87	691.83	394.52	-285.34	704.39	321.88	-288.17	1018.80	319.43	-271.09	1055.18	245.39	-251.44	980.11	-8.90	138.51	57.61
0.99500	680.77	-325.03	469.54	640.81	-312.88	508.90	622.90	-294.60	529.09	402.52	-284.11	690.09	392.08	-285.41	702.73	321.75	-288.32	1017.61	319.46	-271.45	1054.04	245.20	-251.39	979.38	-8.42	138.74	57.44
1.00000	674.06	-325.30	463.81	635.06	-313.35	503.86	618.20	-295.10	524.54	399.75	-284.40	688.42	389.50	-285.48	701.08	321.55	-288.52	1016.40	319.49	-271.80	1052.89	245.01	-251.30	978.68	-8.89	139.04	57.26
1.00500	667.16	-325.53	457.92	629.11	-313.81	498.86	613.11	-295.58	519.97	397.53	-284.49	686.93	386.77	-285.57	699.39	321.31	-288.69	1015.19	319.55	-272.15	1051.74	244.77	-251.23	977.89	-9.34	139.47	57.07
1.01000	660.78	-325.80	452.34	623.51	-314.34	493.96	607.78	-295.36	515.39	394.66	-284.58	685.22	383.92	-285.67	697.75	321.05	-288.86	1013.97	319.63	-272.46	1050.59	244.53	-251.18	977.14	-9.61	139.79	56.88
1.01500	655.02	-326.04	447.00	617.68	-314.83	489.00	602.23	-295.73	510.84	390.88	-284.62	683.17	380.93	-285.69	696.13	320.90	-289.04	1012.78	319.74	-272.74	1049.49	244.32	-251.17	976.43	-9.17	139.93	56.65
1.02000	649.02	-326.63	441.78	611.63	-315.51	484.09	596.48	-296.10	506.22	386.90	-284.72	681.16	377.87	-285.77	694.54	320.78	-289.20	1011.63	319.89	-273.00	1048.41	244.11	-251.17	975.78	-8.69	140.06	56.43
1.02500	641.98	-327.18	436.26	605.27	-316.20	479.21	590.45	-296.40	501.62	383.45	-284.72	679.49	374.64	-285.84	692.99	320.55	-289.37	1010.50	320.04	-273.29	1047.35	243.87	-251.16	975.15	-8.80	140.34	56.20
1.03000	634.64	-328.05	430.75	598.72	-316.49	474.41	584.23	-296.71	497.04	380.58	-284.97	678.17	371.39	-285.95	691.56	320.35	-289.51	1009.41	320.19	-273.59	1046.31	243.61	-251.16	974.57	-8.91	140.77	55.99
1.03500	626.99	-328.44	425.29	591.95	-316.72	469.55	577.85	-297.07	492.53	377.71	-285.25	676.91	368.00	-286.07	690.13	320.17	-289.62	1008.36	320.35	-273.88	1045.29	243.37	-251.12	974.10	-8.97	141.20	55.79
1.04000	619.07	-328.68	419.87	584.99	-316.94	464.77	571.33	-297.39	488.06	374.12	-285.57	675.46	364.52	-286.19	688.78	320.10	-289.75	1007.37	320.52	-274.16	1044.31	243.13	-251.20	973.71	-9.26	141.48	55.56
1.04500	610.92	-329.19	414.46	577.83	-317.16	459.94	564.63	-297.71	483.63	369.67	-285.91	673.75	360.84	-286.32	687.47	319.98	-289.91	1006.38	320.73	-274.43	1043.38	242.84	-251.29	973.32	-9.68	141.58	55.33
1.05000	601.63	-329.92	408.78	570.95	-317.37	455.47	557.69	-298.02	479.21	365.01	-286.00	672.08	357.10	-286.48	686.29	319.88	-290.03	1005.44	320.95	-274.67	1042.49	242.53	-251.30	972.94	-11.66	141.68	55.08
1.05500	592.16	-330.34	403.08	563.82	-317.52	451.07	550.49	-298.78	474.83	360.20	-286.07	670.45	353.28	-286.62	685.10	319.76	-290.14	1004.51	321.18	-274.94	1041.64	242.22	-251.41	972.61	-13.65	141.78	54.83
1.06000	583.25	-330.77	397.93	556.54	-317.72	446.81	543.09	-299.15	470.59	355.96	-286.35	669.18	349.40	-286.76	683.98	319.59	-290.25	1003.66	321.36	-275.18	1040.81	241.89	-251.49	972.33	-14.64	142.03	54.58
1.06500	574.94	-331.14	393.09	548.49	-317.88	442.30	535.47	-299.48	466.45	351.67	-286.66	668.08	345.41	-286.87	682.95	319.47	-290.32	1002.86	321.46	-275.40	1039.98	241.59	-251.52	972.10	-14.09	142.28	54.27
1.07000	565.60	-331.44	388.15	540.21	-318.04	437.89	527.72	-299.82	462.39	347.32	-287.08	667.06	341.33	-287.24	682.02	319.32	-290.37	1002.11	321.58	-275.64	1039.20	241.27	-251.53	971.91	-14.35	142.54	53.98
1.07500	556.00	-331.77	383.18	531.69	-318.16	433.51	518.86	-300.15	457.90	342.88	-287.43	666.08	337.17	-287.41	681.15	319.12	-290.40	1001.34	321.73	-275.87	1038.46	240.92	-251.45	971.76	-14.42	143.02	53.69
1.08000	546.25	-332.07	378.42	522.96	-318.32	429.32	510.71	-300.51	454.02	338.38	-287.57	665.19	332.86	-287.73	680.37	318.86	-290.44	1000.59	321.90	-276.08	1037.74	240.55	-251.39	971.65	-14.63	143.29	53.41
1.08500	537.12	-332.05	374.11	514.07	-318.66	425.27	502.42	-300.87	450.31	333.77	-287.75	664.33	328.51	-288.07	679.66	318.57	-290.51	999.89	321.98	-276.27	1037.03	240.15	-251.37	971.57	-13.98	143.54	53.12
1.09000	526.92	-332.12	369.54	504.88	-318.94	421.38	494.80	-301.27	447.18	329.07	-287.84	663.64	323.47	-288.41	678.80	318.32	-290.63	999.21	321.99	-276.49	1036.34	239.72	-251.37	971.47	-14.41	143.48	52.66
1.09500	516.53	-332.39	365.17	495.56	-319.13	417.53	486.13	-301.64	443.66	324.36	-287.98	663.03	318.96	-288.77	678.23	318.04	-290.69	998.57	321.95	-276.70	1035.69	239.20	-251.35	971.38	-14.58	143.76	52.31
1.10000	505.83	-332.63	360.96	486.06	-319.47	413.84	477.18	-302.02	440.26	319.61	-288.13	662.54	313.81	-289.12	677.51	317.65	-290.75	997.97	321.91	-276.92	1035.08	238.72	-251.36	971.35	-14.84	143.98	51.85
1.10500	495.03	-332.62	357.03	476.37	-319.74	410.32	468.13	-302.43	437.00	314.80	-288.30	662.12	309.17	-289.48	677.11	317.21	-290.87	997.45	321.90	-277.14	1034.52	238.27	-251.31	971.37	-14.96	144.31	51.51
1.11000	483.98	-332.89	353.28	466.46	-320.03	406.95	458.82	-302.40	433.96	309.91	-288.45	661.77	303.95	-289.88	676.59	316.75	-290.96	997.01	321.81	-277.33	1034.01	237.86	-251.22	971.49	-15.09	144.54	51.03
1.11500	472.82	-333.12	349.80	456.28	-320.27	403.62	449.38	-302.74	431.06	304.93	-288.63	661.62	299.24	-290.34	676.40	316.38	-291.02	996.59	321.71	-277.53	1033.56	237.41	-251.11	971.66	-14.99	144.87	50.64
1.12000	461.44	-333.36	346.48	446.13	-320.52	400.64	439.78	-303.11	428.40	299.92	-288.78	661.58	294.56	-290.77	676.40	315.92	-291.11	996.22	321.58	-277.76	1033.16	236.97	-251.05	971.90	-15.17	145.22	50.27
1.12500	450.01	-333.62	343.41	435.81	-320.73	397.87	430.14	-303.45	425.87	294.87	-288.91	661.73	289.88	-290.94	676.54	315.41	-291.23	995.93	321.47	-277.96	1032.81	236.50	-251.06	972.16	-15.23	145.60	49.91
1.13000	438.40	-333.83	340.53	425.45	-320.93	395.43	420.39	-303.81	423.61	289.78	-289.07	661.91	285.17	-291.31	676.83	314.83	-291.41	995.69	321.30	-278.15	1032.51	235.98	-251.12	972.46	-15.45	145.96	49.55
1.13500	426.72	-334.07	337.98	414.97	-321.12	393.03	410.46	-304.15	421.53	284.64	-289.25	662.23	280.39	-291.54	677.25	314.27	-291.56	995.51	321.14	-278.35	1032.28	235.40	-251.05	972.80	-15.55	146.33	49.17
1.14000	414.89	-334.32	335.60	404.43	-321.28	391.00	400.39	-304.47	419.70	279.46	-289.42	662.64	275.50	-291.78	677.79	313.65	-291.72	995.37	320.95	-278.55	1032.11	234.83	-250.98	973.26	-15.77	146.69	48.81
1.14500	403.00	-334.54	333.51	393.81	-321.53	389.15	390.32	-304.77	418.06	274.28	-289.64	663.25	270.58	-292.01	678.42	312.99	-291.81	995.33	320.77	-278.74	1031.98	234.29	-250.89	973.84	-15.95	147.05	48.47
1.15000	390.97	-334.70	331.62	382.87	-321.84	387.48	380.17	-305.11	416.65	269.03	-289.83	664.03	265.61	-292.20	679.15	312.38	-291.94	995.39	320.55	-278.93	1031.90	233.74	-250.81	974.44	-15.94	147.39	48.09
1.15500	378.79	-334.90	330.03	371.90	-322.01	385.98	369.96	-305.38	415.47	263.71	-289.97	664.92	260.60	-292.37	680.03	311.74	-292.10	995.48	320.31	-279.12	1031.85	233.14	-250.71	974.99	-16.04	147.72	47.68
1.16000	366.48	-335.13	328.71	360.86	-322.26	384.79	359.61	-305.79	414.43	258.33	-290.12	665.94	255.55	-292.55	681.08	311.20	-292.20	995.64	320.08	-279.30	1031.89	232.52	-250.65	975.57	-16.21	148.03	47.22
1.16500	354.18	-335.34	327.69	349.91	-322.48	383.91	349.15	-306.16	413.64	252.92	-290.29	667.04	250.44	-292.72	682.20	310.65	-292.32	995.84	319.86	-279.45	1031.95	231.90	-250.55	976.26	-16.45	148.34	46.79
1.17000	341.76	-335.54	326.81	338.87	-322.76	383.28	338.82	-306.51	413.11	247.45	-290.45	668.30	245.30	-292.82	683.39	310.09	-292.48	996.12	319.67	-279.62	1032.07	231.25	-250.46	977.06	-16.77	148.60	46.41
1.17500	329.32	-335.78	326.17	327.73	-322.99	382.79	328.39	-306.91	412.81	241.94	-290.62	669.58	240.06	-292.93	684.67	309.35	-292.64	996.40	319.48	-279.77	1032.20	230.66	-250.33	977.89	-17.00	148.86	46.03
1.18000	316.82	-335.99	325.87	316.61	-323.24	382.53	318.12	-307.34	412.81	236.41	-290.78	671.02	234.83	-293.07	686.06	308.59	-292.70	996.70	319.26	-279.93	1032.36	230.01	-250.13	978.71	-17.35	149.08	45.63
1.18500	304.29	-336.24	325.85	305.42	-323.50	382.40	307.93	-307.73	413.02	230.95	-290.94	672.53	229.55	-293.14	687.60	307.89	-292.73	997.05	318.94	-280.07	1032.52	229.40	-249.96	979.53	-17.67	149.27	45.18
1.19000	291.81	-336.49	326.06	294.29	-323.83	382.65	297.69	-308.17	413.46	225.47	-291.14	674.19	224.28	-293.20	689.25	307.34	-292.87	997.42	318.67	-280.24	1032.72	228.79	-249.85	980.34	-17.99	149.43	44.68
1.19500	279.30	-336.69	326.46	283.18	-324.14	383.08	287.47	-308.64	413.95	220.01	-291.25	675.89	219.00	-293.23	690.99	306.83	-292.97	997.83	318.42	-280.40	1032.92	228.22	-249.77	981.24	-18.37	149.58	44.21
1.20000	266.97	-336.93	327.13	272.16	-324.42	383.78	277.07	-309.07	414.60	214.50	-291.35	677.75	213.74	-293.30	692.81	306.11	-293.09	998.17	318.23	-280.56	1033.15	227.63	-249.60	982.16	-18.60	149.79	43.80
1.20500	254.53	-337.21	328.06	261.06	-324.71	384.53	266.68	-309.51	415.46	209.02	-291.43	679.77	208.53	-293.42	694.69	305.37	-293.18	998.55	317.97	-280.70	1033.37	227.02	-249.41	983.09	-18.90	150.02	43.39
1.21000	242.22	-337.45	329.19	250.00	-325.01	385.63	256.39	-309.94	416.54	203.54	-291.54	681.94	203.32	-293.49	696.69	304.61	-293.21	998.98	317.68	-280.85	1033.60	226.40	-249.17	984.01	-19.12	150.21	42.96
1.21500	229.82	-337.66	330.57	238.95	-325.29	386.95	245.94	-310.32	417.78	198.08	-291.61	684.13	198.16	-293.51	698.77	304.06	-293.29	999.47	317.44	-280.97	1033.86	225.84	-248.99	984.99	-19.38	150.41	42.52
1.22000	217.67	-337.87	332.24	228.02	-325.66	388.54	235.73	-310.71	419.27	192.70	-291.67	686.35	193.07	-293.53	701.04	303.53	-293.33	1000.00	317.23	-281.11	1034.14	225.32	-248.86	985.97	-19.57	150.57	42.06
1.22500	205.49	-338.13	334.12	217.10	-325.94	390.24	225.59	-311.14	420.94	187.41	-291.70	688.66	187.99	-293.50	703.36	302.97	-293.39	1000.48	317.08	-281.22	1034.42	224.84	-248.75	986.97	-19.81	150.73	41.63
1.23000	193.52	-338.33	336.21	206.20	-326.24	392.12	215.74	-311.53	422.76	182.15	-291.71	691.06	183.01	-293.47	705.79	302.32	-293.47	1000.97	316.90	-281.37	1034.71	224.31	-248.64	987.95	-19.91	150.85	41.20
1.23500	181.54	-338.56	338.46	195.41	-326.52	394.18	205.75	-311.89	424.79	176.94	-291.67	693.56	178.04	-293.49	708.25	301.81	-293.64	1001.46	316.75	-281.49	1034.98	223.78	-248.59	989.03	-20.09	151.00	40.81
1.24000	169.70	-338.76	340.84	184.77	-326.86	396.50	195.75	-312.32	426.96	171.83	-291.64	696.16	173.17	-293.47	710.75	301.27	-293.77	1001.97	316.61	-281.62	1035.29	223.31	-248.46	990.15	-20.23	151.18	40.44
1.24500	158.10	-338.93	343.57	174.45	-327.09	399.00	185.74	-312.64	429.36	166.75	-291.50	698.78	168.34	-293.45	713.35	300.88	-293.80	1002.53	316.46	-281.73	1035.60	222.87	-248.29	991.26	-20.46	151.35	40.02
1.25000	146.68	-339.12	346.44	164.24	-327.34	401.67	175.99	-313.07	431.85	161.76	-291.34	701.48	163.63	-293.41	716.02	300.36	-293.81	1003.09	316.36	-281.83	1035.95	222.44	-248.11	992.36	-20.65	151.51	39.64
1.25500	135.43	-339.30	349.57	154.14	-327.55	404.36	166.47	-313.42	434.40	156.85	-291.25	704.21	158.99	-293.30	718.81	299.95	-293.89	1003.70	316.25	-281.92	1036.27	222.03	-248.07	993.49	-20.90	151.63	39.25
1.26000	124.18	-339.46	352.75	144.17	-327.77	407.28	157.32	-313.69	437.16	152.07	-291.11	707.09	154.40	-293.19	721.58	299.55	-294.01	1004.31	316.17	-282.01	1036.60	221.65	-248.00	994.58	-21.25	151.71	38.86
1.26500	113.13	-339.62	356.12	134.38	-327.98	410.26	148.33	-313.98	439.98	147.38	-290.97	709.92	149.90	-293.07	724.41	299.09	-294.18	1004.89	316.08	-282.09	1036.92	221.31	-247.98	995.61	-21.63	151.79	38.44
1.27000	102.23	-339.78	359.68	124.76	-328.15	413.48	139.41	-314.22	443.10	142.77	-290.87	712.78	145.49	-293.00	727.27	298.60	-294.32	1005.44	316.03	-282.18	1037.27	221.02	-248.02	996.59	-22.01	151.88	37.99
1.27500	91.69	-339.88	363.42	115.23	-328.22	416.75	130.68	-314.48	446.17	138.29	-290.81	715.69	141.23	-292.90	730.22	298.17	-294.52	1006.01	316.02	-282.27	1037.58	220.72	-247.99	997.64	-22.20	151.98	37.62
1.28000	81.46	-339.93	367.35	105.94	-328.32	420.25	121.94	-314.70	449.31	133.90	-290.70	718.69	137.05	-292.81	733.18	297.85	-294.66	1006.59	316.01	-282.39	1037.89	220.40	-247.91	998.74	-22.29	152.08	37.27
1.28500	71.38	-340.00	371.35	96.83	-328.37	423.81	113.37	-314.90	452.38	129.69	-290.63	721.69	133.01	-292.70	736.11	297.60	-294.78	1007.18	316.06	-282.46	1038.17	220.09	-247.90	999.84	-22.41	152.20	36.96
1.29000	61.48	-340.03	375.49	88.01	-328.44	427.44	104.97	-315.04	455.66	125.60	-290.55	724.72	129.08	-292.54	739.09	297.31	-294.90	1007.72	316.12	-282.59	1038.46	219.80	-247.87	1000.93	-22.66	152.33	36.66
1.29500	51.55	-340.03	379.56	79.37	-328.41	431.05	97.09	-315.05	459.14	121.66	-290.41	727.79	125.27	-292.38	742.02	297.05	-295.02	1008.29	316.23	-282.70	1038.74	219.53	-247.92	1001.95	-23.16	152.40	36.34
1.30000	42.14	-340.05	383.82	70.98	-328.42	434.72	89.45	-315.14	462.70	117.82	-290.33	730.83	121.57	-292.23	744.98	296.78	-295.22	1008.85	316.28	-283.11	1039.00	219.28	-248.01	1002.85	-23.50	152.45	35.97
1.30500	32.93	-340.00	388.06	62.75	-328.39	438.45	81.85	-315.10	466.17	114.12	-290.35	733.78	118.00	-292.03	747.92	296.57	-295.42	1009.40	316.37	-283.29	1039.24	219.11	-248.02	1003.68	-23.75	152.54	35.58
1.31000	24.08	-339.94	392.41	54.77	-328.36	442.25	74.34	-315.13	469.55	110.51	-290.30	736.70	114.56	-291.87	750.82	296.42	-295.55	1009.89	316.48	-283.70	1039.48	219.06	-247.92	1004.52	-23.92	152.64	35.19
1.31500	15.37	-339.80	396.70	47.04	-328.29	445.99	67.12	-315.17	472.90	107.01	-290.19	739.58	111.22	-291.66	753.66	296.24	-295.69	1010.33	316.72	-284.22	1039.68	219.08	-247.92	1005.38	-24.22	152.72	34.85
1.32000	6.91	-339.67	401.01	39.60	-328.22	449.78	60.15	-315.29	476.30	103.62	-290.08	742.44	108.01	-291.46	756.47	296.10	-295.85	1010.77	316.27	-284.78	1039.54	219.17	-247.96	1006.15	-24.56	152.79	34.53
1.32500	-1.29	-339.51	405.28	32.47	-328.11	453.56	53.42	-315.30	479.71	100.45	-289.93	745.28	104.88	-291.28	759.24	295.99	-296.03	1011.20	316.39	-285.33	1039.58	219.28	-247.90	1006.85	-24.92	152.86	34.19
1.33000	-9.17	-339.41	409.52	25.58	-328.02	457.33	46.94	-315.17	483.17	97.41	-289.71	748.09	101.93	-291.10	761.97	296.02	-296.18	1011.62	315.96	-285.85	1039.36	219.40	-247.93	1007.48	-25.23	152.92	33.87
1.33500	-16.82	-339.25	413.63	19.03	-327.91	461.03	40.97	-315.15	486.49	94.48	-289.58	750.77	99.11	-290.91	764.63	296.07	-296.33	1011.98	316.10	-286.08	1039.32	219.54	-248.04	1008.16	-25.66	152.92	33.59
1.34000	-24.01	-339.09	417.78	12.74	-327.82	464.69	35.36	-315.04	489.86	91.64	-289.42	753.32	96.48	-290.74	767.21	296.20	-296.49	1012.31	315.73	-286.27	1039.00	219.79	-248.12	1008.88	-26.02	152.88	33.39
1.34500	-30.85	-338.90	421.86	6.64	-327.73	468.16	29.87	-315.01	493.03	88.99	-289.26	755.86	93.97	-290.61	769.79	296.41	-296.65	1012.58	315.96	-286.41	1038.89	220.10	-248.18	1009.57	-26.32	152.85	33.17
1.35000	-37.33	-338.75	425.92	0.94	-327.66	471.57	24.38	-314.99	496.02	86.53	-289.16	758.27	91.64	-290.51	772.24	296.70	-296.90	1012.80	316.42	-286.59	1038.81	220.39	-248.24	1010.23	-26.64	152.89	32.98
1.35500	-43.51	-338.54	429.83	-4.49	-327.53	474.85	19.16	-314.94	498.92	84.23	-289.10	760.65	89.41	-290.37	774.60	296.90	-297.10	1012.93	317.66	-286.48	1039.03	220.65	-248.40	1010.76	-26.96	152.92	32.71
1.36000	-49.45	-338.36	433.66	-9.44	-327.38	478.11	14.32	-314.85	501.72	82.01	-288.98	762.83	87.34	-290.31	776.83	297.10	-297.37	1013.01	319.21	-286.61	1039.35	220.93	-248.55	1011.35	-27.45	152.93	32.49
1.36500	-55.00	-338.16	437.31	-14.17	-327.23	481.26	9.97	-314.70	504.56	79.98	-288.89	764.93	85.38	-290.28	778.89	297.33	-297.71	1013.06	320.76	-286.52	1039.64	221.28	-248.91	1011.88	-27.85	152.90	32.26
1.37000	-60.22	-338.00	440.87	-18.63	-327.07	484.19	5.76	-314.54	507.10	78.17	-288.85	766.88	83.64	-290.21	780.85	297.77	-298.02	1013.12	321.67	-286.34	1039.56	221.71	-249.16	1012.39	-28.25	152.90	32.12
1.37500	-65.10	-337.79	444.26	-22.81	-326.95	486.99	1.92	-314.37	509.56	76.57	-288.86	768.72	82.08	-290.23	782.57	298.25	-298.31	1013.14	322.34	-286.17	1039.34	222.19	-249.32	1012.81	-28.64	152.91	32.01
1.38000	-69.59	-337.61	447.56	-26.69	-326.86	489.52	-1.80	-314.24	511.79	75.16	-288.86	770.43	80.74	-290.16	784.26	298.82	-298.60	1013.13	323.11	-286.05	1039.11	222.70	-249.62	1013.15	-29.06	152.95	31.89
1.38500	-73.70	-337.38	450.61	-30.20	-326.82	491.91	-5.08	-314.18	513.87	73.88	-288.90	771.93	79.56	-290.14	785.84	299.43	-298.96	1013.07	323.84	-285.95	1038.86	223.24	-249.95	1013.58	-29.47	152.96	31.84
1.39000	-77.40	-337.25	453.49	-33.35	-326.74	494.11	-8.02	-314.09	515.79	72.79	-288.97	773.30	78.51	-290.16	787.26	300.12	-299.38	1012.97	324.65	-286.18	1038.56	223.90	-250.32	1013.91	-29.90	152.95	31.78
1.39500	-80.84	-337.07	456.04	-36.04	-326.68	496.23	-10.57	-314.07	517.62	71.87	-289.01	774.55	77.64	-290.14	788.51	300.78	-299.81	1012.82	325.47	-286.46	1038.26	224.58	-250.73	1014.14	-30.31	152.94	31.71
1.40000	-83.85	-336.95	458.42	-38.43	-326.64	498.12	-12.90	-313.95	519.29	71.20	-289.02	775.70	76.97	-290.12	789.57	301.39	-300.27	1012.61	326.40	-286.81	1037.93	225.28	-251.11	1014.30	-30.69	152.98	31.67
1.40500	-86.48	-336.88	460.48	-40.49	-326.61	499.88	-14.92	-313.88	520.78	70.67	-289.01	776.65	76.51	-290.12	790.53	302.05	-300.69	1012.37	327.32	-287.17	1037.56	226.06	-251.54	1014.55	-30.91	153.02	31.72
1.41000	-88.52	-336.83	462.48	-42.40	-326.59	501.32	-16.58	-313.86	522.06	70.30	-288.98	777.49	76.16	-290.15	791.31	302.89	-301.15	1012.11	328.31	-287.52	1037.18	226.86	-251.84	1014.84	-31.12	153.02	31.82
1.41500	-90.40	-336.78	464.13	-43.89	-326.62	502.59	-17.94	-313.88	523.25	70.01	-289.01	778.16	75.97	-290.15	791.97	303.87	-301.56	1011.82	329.34	-287.84	1036.73	227.71	-252.34	1015.05	-31.38	153.00	31.93
1.42000	-91.88	-336.79	465.61	-45.05	-326.69	503.66	-19.08	-313.95	524.15	69.94	-289.02	778.68	75.97	-290.15	792.47	304.96	-301.95	1011.48	330.42	-288.19	1036.28	228.53	-252.81	1015.11	-31.63	153.00	31.99
1.42500	-93.06	-336.76	466.78	-45.84	-326.75	504.52	-19.98	-313.91	524.75	70.02	-289.07	778.97	76.16	-290.18	792.81	306.04	-302.40	1011.07	331.57	-288.56	1035.80	229.49	-253.34	1015.06	-31.87	153.01	32.03
1.43000	-93.72	-336.81	467.75	-46.46	-326.77	505.09	-20.39	-313.94	525.15	70.32	-289.10	779.11	76.50	-290.19	792.99	307.18	-302.88	1010.61	332.76	-288.94	1035.29	230.56	-253.91	1014.82	-32.03	152.99	32.01
1.43500	-93.99	-336.81	468.38	-46.70	-326.85	505.35	-20.26	-313.98	525.40	70.81	-289.12	779.14	76.98	-290.24	792.98	308.21	-303.37	1010.05	334.01	-289.26	1034.71	231.61	-254.44	1014.63	-32.25	152.93	32.10
1.44000	-93.88	-336.89	468.73	-46.53	-326.85	505.41	-19.93	-314.04	525.48	71.46	-289.19	778.95	77.67	-290.26	792.83	309.35	-303.83	1009.45	335.27	-289.97	1034.07	232.66	-255.00	1014.34	-32.41	152.90	32.19
1.44500	-93.54	-336.93	468.70	-45.96	-326.93	505.23	-19.59	-314.06	525.09	72.28	-289.21	778.61	78.51	-290.31	792.42	310.60	-304.28	1008.83	336.59	-290.71	1033.45	233.81	-255.53	1014.00	-32.57	152.92	32.28
1.45000	-92.89	-336.98	468.41	-45.08	-327.01	504.79	-19.02	-314.13	524.50	73.27	-289.33	778.04	79.51	-290.44	791.86	312.00	-304.76	1008.17	337.93	-291.51	1032.82	235.03	-256.09	1013.52	-32.73	152.94	32.31
1.45500	-91.93	-337.09	467.72	-43.92	-327.06	504.09	-17.79	-314.31	523.66	74.46	-289.49	777.31	80.66	-290.60	791.08	313.43	-305.25	1007.47	339.27	-291.94	1032.13	236.21	-256.77	1013.00	-32.87	152.90	32.39
1.46000	-90.44	-337.16	466.83	-42.42	-327.15	503.13	-15.97	-314.41	522.72	75.82	-289.60	776.37	81.97	-290.72	790.13	314.82	-305.75	1006.66	339.80	-292.62	1031.04	237.39	-257.44	1012.49	-33.03	152.81	32.65
1.46500	-88.54	-337.26	465.66	-40.53	-327.32	501.94	-13.86	-314.55	521.50	77.32	-289.72	775.24	83.43	-290.87	789.02	316.26	-306.20	1005.79	340.14	-293.44	1029.78	238.65	-258.26	1011.85	-33.16	152.72	32.94
1.47000	-86.21	-337.40	464.18	-38.24	-327.42	500.43	-11.48	-314.68	520.02	79.00	-289.86	773.97	85.05	-291.11	787.75	317.72	-306.70	1004.89	340.52	-293.89	1028.53	240.03	-258.94	1011.15	-33.31	152.63	33.21
1.47500	-83.48	-337.45	462.38	-35.55	-327.61	498.69	-8.85	-314.86	518.35	80.78	-290.00	772.50	86.87	-291.34	786.32	319.28	-307.20	1003.97	342.63	-294.58	1027.98	241.41	-259.59	1010.37	-33.43	152.55	33.25
1.48000	-80.32	-337.61	460.32	-32.49	-327.81	496.67	-5.92	-315.16	516.26	82.73	-290.19	770.82	88.83	-291.61	784.62	320.93	-307.64	1002.99	344.32	-295.37	1027.27	242.86	-260.38	1009.46	-33.56	152.46	33.30
1.48500	-76.75	-337.77	457.97	-29.04	-327.97	494.44	-2.55	-315.39	514.01	84.85	-290.31	768.91	90.95	-291.88	782.77	322.55	-308.08	1001.92	345.84	-296.12	1026.42	244.26	-261.29	1008.48	-33.68	152.34	33.41
1.49000	-72.78	-338.03	455.34	-25.25	-328.15	491.92	1.38	-315.70	511.45	87.14	-290.51	766.91	93.22	-292.17	780.81	324.23	-308.52	1000.80	347.33	-296.88	1025.52	245.69	-262.11	1007.35	-33.87	152.16	33.47
1.49500	-68.41	-338.28	452.32	-20.94	-328.42	489.28	5.71	-315.98	508.85	89.67	-290.67	764.76	95.70	-292.46	778.75	325.93	-308.95	999.68	348.86	-296.92	1024.59	247.10	-262.85	1006.27	-33.93	151.98	33.61
1.50000	-63.59	-338.53	449.09	-16.32	-328.62	486.33	10.23	-316.23	505.95	92.36	-290.87	762.51	98.32	-292.75	776.50	327.69	-309.42	998.54	350.44	-296.81	1023.70	248.63	-263.64	1005.19	-34.01	151.82	33.76
1.50500	-58.25	-338.82	445.56	-11.21	-328.92	483.15	15.09	-316.40	502.83	95.26	-291.01	759.99	101.11	-292.98	774.05	329.44	-309.81	997.40	351.22	-296.65	1022.44	250.18	-264.42	1004.16	-34.05	151.69	34.12
1.51000	-52.38	-339.11	441.99	-5.89	-329.18	479.69	20.56	-316.57	499.58	98.33	-291.17	757.40	104.07	-293.22	771.48	331.25	-310.18	996.23	352.66	-296.84	1021.46	251.77	-265.23	1003.01	-34.17	151.48	34.33
1.51500	-46.05	-339.40	438.11	0.01	-329.52	476.08	26.50	-316.84	496.14	101.53	-291.40	754.63	107.19	-293.56	768.74	333.15	-310.55	995.10	355.12	-296.74	1020.91	253.37	-266.00	1001.65	-34.31	151.24	34.33
1.52000	-39.34	-339.71	434.07	6.34	-329.79	472.29	32.78	-317.08	492.53	104.98	-291.66	751.82	110.51	-293.90	765.87	335.08	-310.92	993.98	357.82	-296.52	1020.52	255.04	-266.74	1000.22	-34.52	151.01	34.28
1.52500	-32.19	-340.04	429.67	13.32	-330.11	468.36	39.31	-317.28	488.65	108.63	-291.82	748.82	114.00	-294.15	762.88	337.01	-311.23	992.83	360.58	-296.67	1020.14	256.74	-267.47	998.87	-34.71	150.80	34.30
1.53000	-24.49	-340.48	425.17	20.53	-330.40	464.17	46.33	-317.43	484.61	112.51	-292.03	745.70	117.76	-294.42	759.81	338.93	-311.56	991.70	362.53	-296.55	1019.45	258.44	-268.22	997.63	-34.87	150.58	34.52
1.53500	-16.29	-340.89	420.45	28.31	-330.75	460.03	53.76	-317.63	480.48	116.58	-292.18	742.45	121.72	-294.65	756.64	340.83	-311.84	990.57	364.24	-296.28	1018.70	260.13	-268.79	996.33	-34.92	150.36	34.75
1.54000	-7.56	-341.33	415.64	36.36	-331.11	455.62	61.62	-317.87	476.32	120.84	-292.38	739.13	125.89	-294.90	753.38	342.85	-312.09	989.53	365.92	-296.03	1017.99	261.82	-269.27	995.03	-34.98	150.12	34.99
1.54500	1.59	-341.69	410.65	44.98	-331.44	451.15	69.87	-317.96	472.02	125.37	-292.55	735.68	130.25	-295.14	750.00	344.89	-312.32	988.54	367.62	-295.75	1017.34	263.51	-269.82	993.70	-35.09	149.91	35.22
1.55000	11.48	-342.06	405.61	54.02	-331.76	446.53	78.62	-318.15	467.63	130.06	-292.74	732.11	134.82	-295.39	746.54	347.01	-312.58	987.63	369.32	-295.80	1016.75	265.18	-270.45	992.45	-35.11	149.65	35.51
1.55500	21.82	-342.41	400.43	63.74	-332.10	441.93	87.88	-318.30	463.22	135.07	-292.88	728.44	139.63	-295.65	742.96	349.04	-312.70	986.76	371.06	-295.91	1016.25	266.91	-271.17	991.18	-35.20	149.43	35.80
1.56000	32.74	-342.75	395.20	73.91	-332.40	437.30	97.71	-318.54	458.93	140.29	-293.13	724.78	144.67	-295.93	739.37	351.10	-312.87	985.96	372.78	-296.01	1015.84	268.68	-271.86	989.91	-35.26	149.16	36.08
1.56500	44.09	-343.07	389.83	84.59	-332.73	432.64	107.99	-318.75	454.60	145.86	-293.42	721.09	149.96	-296.24	735.71	353.23	-313.00	985.26	374.48	-296.06	1015.54	270.43	-272.40	988.68	-35.32	148.92	36.36
1.57000	56.08	-343.37	384.54	95.57	-332.96	428.06	118.68	-318.95	450.31	151.62	-293.69	717.41	155.53	-296.52	732.05	355.42	-313.09	984.69	376.16	-296.09	1015.35	272.23	-273.03	987.58	-35.19	148.68	36.69
1.57500	68.55	-343.65	379.21	107.20	-333.18	423.57	129.70	-319.13	445.98	157.75	-293.90	713.74	161.40	-296.76	728.39	357.64	-313.21	984.20	377.87	-296.13	1015.31	274.07	-273.67	986.65	-35.09	148.49	37.07
1.58000	81.47	-343.89	373.96	119.24	-333.39	419.22	141.27	-319.33	441.90	164.19	-294.22	710.17	167.56	-297.05	724.80	359.84	-313.29	983.85	379.56	-296.14	1015.41	275.99	-274.29	985.80	-34.96	148.30	37.46
1.58500	94.94	-344.05	368.79	132.00	-333.60	414.94	153.49	-319.53	437.92	170.97	-294.49	706.66	174.02	-297.30	721.31	362.01	-313.30	983.67	381.23	-296.12	1015.66	277.86	-274.94	984.96	-35.04	148.10	37.83
1.59000	109.10	-344.18	363.81	145.16	-333.72	410.83	166.36	-319.67	434.16	178.01	-294.76	703.19	180.75	-297.61	717.87	364.16	-313.34	983.71	382.87	-296.09	1016.06	279.71	-275.67	984.17	-35.01	147.88	38.22
1.59500	123.96	-344.28	359.03	158.82	-333.83	406.81	179.69	-319.76	430.58	185.32	-295.04	699.74	187.78	-297.91	714.48	366.32	-313.39	983.91	384.49	-296.05	1016.63	281.55	-276.38	983.54	-34.92	147.67	38.65
1.60000	139.29	-344.34	354.50	172.85	-333.88	402.97	193.41	-319.95	427.28	192.88	-295.39	696.46	195.10	-298.23	711.20	368.46	-313.40	984.29	386.10	-296.33	1017.36	283.38	-277.10	983.09	-34.82	147.48	39.14
1.60500	155.19	-344.35	350.19	187.61	-333.91	399.54	207.66	-319.97	424.24	200.72	-295.63	693.31	202.69	-298.55	708.03	370.59	-313.33	984.83	387.65	-296.68	1018.25	285.23	-277.75	982.82	-34.79	147.28	39.68
1.61000	171.60	-344.35	346.15	202.90	-333.96	396.37	222.55	-319.98	421.47	208.80	-295.93	690.44	210.52	-298.86	705.08	372.62	-313.32	985.55	389.15	-297.03	1019.29	287.04	-278.25	982.68	-34.86	147.05	40.25
1.61500	188.71	-344.38	342.49	218.70	-333.97	393.48	237.79	-319.86	419.05	217.16	-296.14	687.62	218.64	-299.15	702.27	374.65	-313.25	986.48	390.61	-297.01	1020.51	288.81	-278.73	982.71	-34.84	146.84	40.86
1.62000	206.41	-344.34	339.21	234.95	-333.97	390.86	253.42	-319.74	417.11	225.93	-296.37	685.08	226.99	-299.36	699.73	376.66	-313.48	987.59	391.19	-296.89	1021.54	290.54	-279.31	982.87	-34.78	146.67	41.51
1.62500	224.76	-344.29	336.41	251.88	-333.84	388.75	269.40	-319.56	415.47	234.95	-296.61	682.59	235.61	-299.61	697.36	378.63	-313.41	988.88	391.52	-296.76	1022.65	292.28	-279.83	983.15	-34.73	146.52	42.16
1.63000	243.63	-344.17	334.01	268.69	-333.67	386.68	285.76	-319.29	414.17	244.27	-296.95	680.41	244.43	-299.90	695.23	380.57	-313.25	990.29	391.80	-296.59	1023.90	293.98	-280.37	983.55	-34.30	146.37	42.82
1.63500	263.14	-344.04	332.25	285.86	-333.50	385.08	302.60	-318.95	413.17	253.72	-297.20	678.42	253.57	-300.13	693.31	382.42	-313.07	991.83	393.68	-296.40	1025.92	295.62	-280.98	984.06	-33.71	146.21	43.53
1.64000	283.26	-343.89	331.02	303.47	-333.22	383.98	320.06	-318.61	412.82	263.47	-297.53	676.80	262.98	-300.38	691.56	383.32	-312.87	993.11	395.88	-296.21	1028.22	297.19	-281.50	984.68	-32.98	146.14	44.44
1.64500	303.92	-343.71	330.40	322.87	-333.06	384.32	338.15	-318.18	413.07	273.50	-297.86	675.42	272.63	-300.64	690.11	384.94	-312.64	994.82	398.05	-296.00	1030.62	298.70	-281.96	985.36	-33.20	145.92	45.28
1.65000	325.04	-343.46	330.23	342.75	-332.93	385.19	356.71	-317.70	413.96	283.79	-298.20	674.40	282.46	-300.94	688.95	386.71	-312.38	996.72	399.36	-295.75	1032.78	300.20	-282.43	986.16	-33.51	145.64	46.11
1.65500	346.62	-343.26	330.73	363.11	-332.79	386.63	375.47	-317.17	415.29	294.28	-298.49	673.57	292.52	-301.19	688.12	389.40	-312.04	999.10	400.48	-295.16	1034.94	301.68	-282.86	987.10	-33.89	145.25	46.86
1.66000	368.69	-343.03	331.84	383.09	-332.66	388.25	394.42	-316.63	417.23	305.04	-298.80	673.05	302.87	-301.51	687.50	391.30	-311.73	1001.23	401.49	-294.47	1037.17	303.19	-283.31	988.09	-33.57	145.00	47.73
1.66500	391.14	-342.74	333.65	402.96	-332.42	390.14	413.67	-316.08	419.71	316.10	-299.15	672.75	313.45	-301.78	687.19	393.01	-311.39	1003.37	402.41	-293.77	1039.46	304.66	-283.80	989.03	-32.90	144.79	48.58
1.67000	413.92	-342.37	336.14	423.04	-331.98	392.73	433.20	-315.54	422.92	327.39	-299.55	672.82	324.26	-302.14	687.16	394.66	-311.05	1005.54	403.25	-293.39	1041.80	306.18	-284.28	989.97	-32.11	144.58	49.43
1.67500	437.07	-342.16	339.46	443.59	-331.66	395.99	453.20	-314.99	426.76	338.82	-299.87	673.18	335.22	-302.58	687.43	396.33	-310.39	1007.76	404.14	-293.07	1044.16	307.70	-284.77	990.95	-31.48	144.30	50.31
1.68000	460.59	-341.95	343.59	464.87	-331.49	400.41	473.44	-314.86	431.32	350.44	-300.24	673.76	346.39	-302.97	687.99	398.04	-309.98	1010.01	405.00	-292.72	1046.54	309.23	-285.26	991.97	-31.21	143.99	51.21
1.68500	484.48	-341.74	348.51	486.50	-331.32	405.49	493.90	-314.24	436.52	362.22	-300.52	674.71	357.70	-303.09	688.83	399.81	-309.58	1012.32	405.85	-292.36	1048.94	310.82	-285.74	992.94	-30.96	143.65	52.08
1.69000	508.57	-341.54	354.19	508.66	-331.09	411.67	514.36	-314.21	442.36	374.18	-300.83	675.99	369.12	-303.15	690.03	401.59	-309.23	1014.66	406.59	-292.04	1051.36	312.41	-286.17	993.90	-31.05	143.33	52.90
1.69500	532.26	-341.31	360.44	530.52	-330.69	418.30	534.94	-313.54	448.99	386.27	-301.20	677.65	380.69	-303.50	691.54	403.34	-308.87	1017.03	407.30	-291.71	1053.77	314.05	-286.61	994.83	-31.31	142.99	53.73
1.70000	556.00	-341.09	367.64	552.37	-330.42	425.79	554.53	-313.47	455.84	398.46	-301.64	679.61	392.35	-303.81	693.35	404.97	-308.49	1019.38	407.97	-291.36	1056.13	315.67	-287.05	995.69	-31.33	142.89	54.57
1.70500	579.81	-340.60	375.75	573.92	-330.05	433.71	575.07	-312.85	463.81	410.72	-301.97	681.84	404.70	-303.86	695.67	406.64	-308.14	1021.72	408.57	-291.03	1058.46	317.31	-287.45	996.51	-31.20	142.65	55.49
1.71000	604.28	-340.36	385.12	595.99	-329.73	442.70	594.71	-312.20	472.18	423.05	-302.31	684.40	417.20	-303.86	698.24	408.33	-307.82	1024.09	409.21	-290.67	1060.80	319.01	-287.90	997.25	-30.77	142.59	56.39
1.71500	628.80	-339.71	395.34	618.62	-329.35	452.76	616.22	-312.15	482.02	435.50	-302.71	687.30	429.21	-303.78	700.95	410.10	-307.51	1026.44	409.83	-290.31	1063.10	320.76	-288.34	997.94	-31.31	142.00	57.17
1.72000	653.33	-339.44	406.51	640.59	-329.03	463.50	635.92	-312.24	491.98	448.03	-302.97	690.65	440.66	-303.74	703.63	411.77	-307.23	1028.77	410.48	-289.93	1065.34	322.59	-288.74	998.54	-30.80	141.68	57.84
1.72500	678.49	-339.13	418.78	662.35	-328.86	474.90	657.23	-312.40	503.26	460.61	-303.18	694.23	452.74	-303.61	706.88	413.46	-306.95	1031.04	411.08	-289.55	1067.47	324.43	-289.14	999.09	-29.79	141.07	58.63
1.73000	702.66	-338.65	431.74	683.25	-328.48	486.89	677.53	-312.45	515.04	473.23	-303.13	698.10	465.42	-303.39	710.65	415.19	-306.68	1033.30	411.65	-289.22	1069.51	326.34	-289.51	999.59	-28.75	140.71	59.51
1.73500	727.45	-338.06	445.61	704.34	-328.14	499.75	697.36	-312.08	527.44	485.88	-303.27	702.22	478.31	-303.20	714.79	416.92	-306.42	1035.51	412.27	-288.88	1071.47	328.29	-289.85	1000.09	-27.31	140.41	60.47
1.74000	750.57	-337.49	459.93	725.06	-327.80	513.50	715.85	-312.17	540.27	498.49	-303.40	706.70	490.52	-303.18	719.04	418.69	-306.21	1037.69	412.95	-288.53	1073.32	330.34	-290.09	1000.51	-27.09	140.15	61.31
1.74500	774.24	-336.87	475.26	745.43	-327.43	527.90	733.89	-311.60	553.76	510.96	-303.49	711.45	502.70	-303.21	723.57	420.37	-305.99	1039.79	413.72	-288.16	1075.08	332.46	-290.25	1000.90	-26.04	139.87	62.20
1.75000	796.70	-336.19	491.36	765.38	-327.25	542.98	752.51	-311.75	568.11	524.02	-303.44	716.70	514.56	-302.89	728.36	422.17	-305.80	1041.82	414.59	-287.77	1076.74	334.67	-290.38	1001.28	-25.72	139.46	63.07
1.75500	819.35	-335.45	508.38	784.69	-326.80	558.78	770.62	-311.42	582.95	536.13	-303.28	722.12	526.30	-302.90	733.43	423.97	-305.66	1043.74	415.55	-287.37	1078.30	336.99	-290.44	1001.65	-24.79	138.94	63.95
1.76000	841.45	-334.87	526.35	803.42	-326.51	575.09	788.32	-311.81	598.21	547.99	-303.21	727.81	537.78	-303.09	738.72	425.93	-305.47	1045.61	416.62	-286.99	1079.75	339.51	-290.43	1001.93	-23.70	138.36	64.76
1.76500	862.93	-333.91	545.11	821.51	-326.17	591.98	805.49	-312.21	614.01	558.94	-302.69	733.47	549.12	-303.26	744.24	427.92	-305.31	1047.41	417.78	-286.60	1081.09	342.23	-290.37	1002.10	-22.69	137.64	65.51
1.77000	883.83	-333.37	564.61	839.02	-325.98	609.29	821.98	-312.21	630.36	570.37	-302.42	739.54	560.18	-303.34	749.91	429.91	-305.12	1049.15	419.02	-286.21	1082.33	345.12	-290.28	1002.24	-21.45	136.98	66.23
1.77500	904.00	-332.37	584.72	855.88	-325.77	627.00	837.63	-312.03	647.22	581.67	-302.15	745.82	570.19	-302.95	755.56	432.00	-304.94	1050.84	420.36	-285.79	1083.49	348.13	-290.15	1002.31	-20.24	136.15	66.74
1.78000	923.41	-331.41	605.38	872.01	-325.60	645.23	852.43	-311.85	664.67	592.82	-301.39	752.39	579.93	-302.76	761.31	434.18	-304.71	1052.45	421.82	-285.35	1084.61	351.23	-290.03	1002.37	-19.11	135.26	67.23
1.78500	942.00	-330.33	626.69	887.50	-325.41	663.80	866.61	-311.69	682.20	604.73	-301.26	759.42	589.44	-302.22	767.18	436.47	-304.44	1054.05	423.40	-284.90	1085.68	354.43	-289.87	1002.46	-17.82	134.50	67.72
1.79000	959.60	-329.16	648.78	902.10	-325.06	682.89	880.11	-311.56	699.99	615.65	-300.90	766.38	599.67	-301.55	773.34	438.89	-304.20	1055.57	425.03	-284.45	1086.71	357.62	-289.72	1002.67	-16.59	133.76	68.40
1.79500	976.29	-327.90	671.44	916.04	-324.80	702.17	893.15	-311.52	717.62	626.21	-300.48	773.43	610.62	-301.32	779.99	441.38	-303.88	1057.09	426.72	-284.40	1087.66	360.78	-289.57	1002.95	-15.22	133.22	69.31
1.80000	991.69	-326.52	694.54	929.22	-324.53	721.71	905.42	-311.48	735.37	636.61	-300.05	780.61	620.89	-300.65	786.70	443.89	-303.57	1058.53	428.51	-284.41	1088.59	363.92	-289.42	1003.23	-13.95	132.62	70.18
1.80500	1006.13	-325.11	717.64	941.79	-324.21	741.14	917.20	-311.43	752.86	646.68	-299.17	788.15	631.60	-300.41	793.89	446.35	-303.24	1059.90	430.39	-284.47	1089.48	367.04	-289.26	1003.42	-12.63	132.29	71.21
1.81000	1019.37	-323.66	740.67	953.59	-323.86	760.44	928.14	-311.38	770.26	656.47	-298.21	795.98	641.41	-299.29	801.16	448.78	-302.93	1061.24	432.33	-284.57	1090.36	370.21	-289.20	1003.52	-11.32	131.93	72.10
1.81500	1031.46	-322.22	763.40	964.49	-323.38	779.50	938.53	-311.24	787.43	664.94	-297.25	803.88	650.66	-298.13	808.63	451.21	-302.61	1062.53	433.46	-284.67	1090.99	373.40	-289.21	1003.47	-10.08	131.59	72.61
1.82000	1042.27	-320.70	785.68	974.52	-322.81	798.19	948.17	-310.96	804.27	673.95	-296.65	812.07	659.66	-297.01	816.23	453.53	-302.30	1063.82	434.28	-284.81	1091.54	376.60	-289.20	1003.36	-8.83	131.41	72.97
1.82500	1051.84	-319.00	807.21	983.62	-322.02	816.43	957.08	-310.30	820.65	683.39	-295.80	820.58	667.46	-295.95	823.82	455.62	-302.05	1065.09	434.96	-285.00	1092.10	379.75	-289.01	1003.23	-7.72	131.27	73.13
1.83000	1060.43	-317.34	827.77	992.05	-321.11	833.93	965.16	-309.57	836.67	692.54	-294.96	829.15	676.38	-295.31	831.77	457.53	-301.80	1066.41	436.27	-285.24	1092.93	382.79	-288.80	1003.14	-6.73	131.43	73.79
1.83500	1068.11	-315.64	847.26	999.75	-320.15	850.76	972.43	-308.82	852.33	701.20	-294.57	837.75	684.34	-294.41	839.74	459.32	-301.63	1067.73	437.66	-285.56	1093.87	385.71	-288.76	1003.14	-6.01	131.55	74.42
1.84000	1075.23	-314.13	865.61	1006.89	-319.25	866.75	979.26	-308.15	867.40	708.73	-294.26	846.18	692.53	-293.89	847.84	460.94	-301.44	1069.05	438.89	-285.90	1094.83	388.52	-288.61	1003.24	-5.44	131.83	75.12
1.84500	1081.92	-312.65	882.84	1013.52	-318.39	881.99	985.97	-307.40	881.75	715.76	-293.97	854.63	699.71	-293.92	855.89	462.26	-301.32	1070.40	439.96	-285.85	1095.82	391.62	-288.45	1003.65	-5.02	132.18	75.58
1.85000	1088.22	-311.35	898.92	1019.76	-317.45	896.45	992.36	-306.64	895.42	722.46	-293.67	863.01	706.30	-293.62	863.86	463.38	-301.33	1071.83	440.88	-285.34	1096.82	394.75	-288.36	1004.27	-4.78	132.58	75.92
1.85500	1094.04	-310.15	914.03	1025.49	-316.58	910.28	998.21	-306.05	908.70	728.81	-293.34	871.29	712.65	-293.75	871.78	464.50	-301.29	1073.40	441.70	-285.13	1097.91	397.38	-288.33	1004.85	-4.77	133.00	76.37
1.86000	1099.32	-309.10	928.24	1030.70	-315.73	923.51	1003.24	-305.39	921.69	733.71	-293.46	879.24	718.58	-293.42	879.59	465.59	-301.25	1075.08	442.44	-285.00	1099.04	399.76	-288.48	1005.54	-5.01	133.36	76.84
1.86500	1104.26	-308.21	941.58	1035.40	-314.94	936.16	1007.81	-304.59	934.23	738.09	-293.68	887.06	723.12	-293.60	887.08	466.60	-301.24	1076.92	443.89	-284.84	1100.52	401.98	-288.52	1006.42	-5.41	133.58	77.51
1.87000	1108.62	-307.39	954.19	1039.65	-314.20	948.17	1011.95	-303.65	946.30	741.98	-293.79	894.69	727.00	-293.90	894.40	467.50	-301.27	1078.92	445.52	-284.65	1102.15	404.44	-288.49	1007.66	-5.83	133.76	78.08
1.87500	1112.63	-306.83	966.13	1043.49	-313.51	959.60	1015.68	-302.92	957.75	746.56	-293.28	902.30	730.50	-294.12	901.59	468.42	-301.23	1081.08	446.34	-284.45	1103.64	406.49	-288.50	1008.91	-6.25	133.95	78.41
1.88000	1116.05	-306.36	977.52	1046.85	-312.87	970.53	1018.89	-302.28	968.78	750.82	-292.66	909.70	734.67	-293.72	908.79	469.28	-301.14	1083.30	446.16	-284.19	1104.91	407.95	-288.91	1009.98	-6.66	134.24	78.60
1.88500	1119.10	-306.00	988.38	1049.81	-312.31	981.00	1021.71	-301.84	979.25	754.65	-292.64	916.88	738.59	-293.88	915.82	470.09	-301.07	1085.61	445.76	-283.93	1106.16	409.66	-289.22	1011.27	-7.07	134.55	78.52
1.89000	1121.79	-305.70	998.74	1052.35	-311.70	991.04	1024.30	-301.29	989.29	758.04	-292.75	923.77	742.00	-293.48	922.64	470.78	-300.96	1088.01	446.12	-283.58	1107.76	411.38	-289.46	1012.66	-7.50	134.80	78.70
1.89500	1124.00	-305.39	1008.70	1054.50	-311.07	1000.64	1026.42	-300.61	998.80	762.01	-291.71	930.48	744.97	-293.00	929.20	471.50	-300.89	1090.39	446.67	-283.23	1109.47	413.36	-289.90	1014.30	-7.87	135.00	78.77
1.90000	1125.97	-305.16	1018.25	1056.28	-310.37	1009.87	1028.33	-299.92	1007.93	765.68	-290.55	936.94	748.53	-292.06	935.61	472.16	-300.70	1092.68	447.18	-283.29	1111.15	414.48	-290.38	1015.65	-8.27	135.26	79.29
1.90500	1127.44	-304.79	1027.54	1057.75	-309.64	1018.72	1029.79	-299.10	1016.66	768.03	-289.37	943.03	750.91	-291.70	941.58	472.77	-300.43	1094.82	447.63	-283.40	1112.78	415.63	-290.82	1017.09	-8.49	135.44	79.64
1.91000	1128.70	-304.39	1036.52	1058.96	-308.82	1027.22	1031.04	-298.24	1025.00	768.93	-288.95	948.71	753.77	-290.74	947.32	473.30	-300.19	1096.90	448.04	-283.12	1114.36	416.37	-291.24	1018.40	-8.63	135.70	80.19
1.91500	1129.47	-303.97	1045.30	1059.87	-307.93	1035.38	1031.98	-297.32	1032.90	770.59	-287.93	954.09	755.60	-289.73	952.60	473.79	-299.95	1098.87	448.36	-282.78	1115.88	417.25	-291.30	1019.83	-8.67	135.79	80.52
1.92000	1130.02	-303.41	1053.75	1060.58	-307.00	1043.21	1032.76	-296.26	1040.51	773.06	-286.83	959.24	758.09	-288.71	957.64	474.16	-300.08	1100.75	448.64	-282.46	1117.34	417.73	-291.60	1021.09	-8.75	135.87	81.06
1.92500	1130.36	-302.86	1061.88	1061.01	-305.99	1050.73	1033.46	-295.24	1047.75	775.45	-285.80	964.05	758.45	-287.62	962.17	474.39	-300.32	1102.58	448.82	-282.16	1118.74	418.35	-292.01	1022.40	-8.84	135.73	81.25
1.93000	1130.59	-302.21	1069.65	1061.28	-304.91	1057.88	1033.74	-294.07	1054.74	775.65	-285.39	968.44	759.36	-286.60	966.43	474.58	-300.60	1104.31	448.94	-281.87	1120.07	418.98	-292.41	1023.70	-8.85	135.68	81.44
1.93500	1130.55	-301.54	1077.12	1061.35	-303.84	1064.70	1033.86	-292.90	1061.35	776.60	-285.02	972.58	760.38	-286.18	970.42	474.77	-300.88	1106.01	449.01	-281.60	1121.36	419.87	-292.61	1025.11	-8.86	135.57	81.45
1.94000	1130.32	-300.73	1084.25	1061.30	-302.71	1071.14	1033.88	-291.55	1067.56	777.59	-284.79	976.45	762.39	-285.20	974.22	473.92	-301.09	1107.26	449.09	-281.33	1122.64	420.45	-292.94	1026.34	-8.81	135.67	81.80
1.94500	1129.89	-299.92	1091.07	1061.19	-301.60	1077.25	1033.87	-290.31	1073.34	779.41	-284.54	980.02	763.36	-285.53	977.64	472.72	-301.34	1108.33	449.13	-281.04	1123.86	420.87	-293.15	1027.45	-8.77	135.65	82.13
1.95000	1129.41	-298.99	1097.51	1060.96	-300.45	1083.01	1033.86	-289.07	1078.70	780.08	-284.94	983.27	763.98	-286.06	980.71	471.44	-301.05	1109.23	449.16	-280.78	1124.98	420.85	-293.29	1028.32	-8.64	135.68	82.60
1.95500	1128.87	-297.92	1103.62	1060.64	-299.36	1088.44	1033.66	-287.95	1083.83	780.63	-285.44	986.21	764.47	-286.57	983.48	471.12	-301.25	1110.33	449.16	-280.53	1126.03	420.99	-293.42	1029.27	-8.55	135.52	82.85
1.96000	1128.35	-296.83	1109.33	1060.26	-298.20	1093.49	1033.51	-286.79	1088.61	780.00	-286.02	988.87	764.88	-286.42	985.99	470.97	-301.54	1111.35	449.14	-280.33	1126.98	421.11	-293.57	1030.22	-8.38	135.42	83.06
1.96500	1127.73	-295.74	1114.74	1059.79	-297.03	1098.23	1033.21	-285.58	1093.17	779.19	-285.96	991.29	764.08	-286.15	988.16	470.80	-301.85	1112.27	449.10	-280.16	1127.87	421.13	-293.71	1031.12	-8.19	135.21	83.19
1.97000	1127.05	-294.47	1119.77	1059.35	-295.84	1102.64	1032.72	-284.34	1097.38	778.24	-285.74	993.49	763.05	-286.65	990.14	471.67	-301.74	1113.34	449.00	-280.01	1128.66	421.05	-294.02	1031.97	-8.01	134.87	83.20
1.97500	1126.43	-293.17	1124.47	1058.80	-294.68	1106.78	1031.99	-283.18	1101.41	778.25	-286.25	995.61	761.93	-287.25	991.95	471.62	-301.66	1114.07	448.85	-279.88	1129.39	420.89	-294.25	1032.75	-7.98	134.55	83.32
1.98000	1125.88	-291.86	1128.80	1058.32	-293.47	1110.59	1031.31	-281.95	1105.09	778.33	-286.85	997.55	761.87	-287.91	993.74	471.32	-301.04	1114.62	448.63	-279.76	1130.05	420.66	-294.40	1033.45	-7.95	134.38	83.56
1.98500	1125.27	-290.41	1132.85	1057.83	-292.24	1114.13	1030.71	-280.85	1108.53	778.32	-287.44	999.35	763.17	-288.63	995.50	469.93	-300.38	1114.78	448.39	-279.64	1130.63	420.36	-294.53	1034.04	-7.88	134.47	84.05
1.99000	1124.63	-289.01	1136.60	1057.32	-291.00	1117.42	1030.20	-279.78	1111.70	779.54	-288.11	1001.05	763.33	-289.35	997.05	470.47	-300.20	1115.46	448.13	-279.53	1131.18	420.05	-294.61	1034.55	-7.91	134.17	84.19
1.99500	1123.97	-287.58	1140.03	1056.70	-289.77	1120.50	1029.61	-278.80	1114.58	779.62	-288.09	1002.51	763.29	-290.09	998.43	470.29	-299.66	1115.94	447.84	-279.50	1131.68	419.70	-294.72	1035.01	-7.96	134.00	84.37
2.00000	1123.28	-286.09	1143.17	1056.05	-288.51	1123.28	1028.96	-277.69	1117.25	779.50	-288.01	1003.84	761.95	-290.14	999.60	470.95	-298.99	1116.64	447.48	-279.49	1132.14	419.33	-294.83	1035.42	-7.97	133.64	84.32
2.00500	1122.54	-284.53	1146.05	1055.40	-287.26	1125.82	1028.26	-276.72	1119.72	778.21	-287.98	1004.94	761.59	-290.11	1000.75	470.80	-299.31	1117.03	447.13	-279.47	1132.55	418.92	-294.91	1035.78	-7.89	133.55	84.45
2.01000	1121.71	-283.09	1148.72	1054.76	-285.99	1128.15	1027.46	-275.54	1122.11	777.94	-287.91	1006.04	761.36	-290.09	1001.79	470.45	-298.80	1117.30	446.78	-279.43	1132.91	418.53	-294.94	1036.07	-7.87	133.40	84.61
2.01500	1120.96	-281.63	1151.14	1054.07	-284.72	1130.34	1026.65	-274.45	1124.29	777.74	-287.83	1006.98	761.13	-290.06	1002.70	470.10	-298.15	1117.56	446.43	-279.41	1133.25	418.12	-294.94	1036.35	-7.96	133.23	84.75
2.02000	1120.15	-280.14	1153.33	1053.33	-283.49	1132.33	1025.89	-273.32	1126.12	777.47	-287.72	1007.86	760.87	-290.80	1003.49	469.73	-297.53	1117.81	446.09	-279.40	1133.56	417.67	-294.96	1036.64	-8.01	133.11	84.90
2.02500	1119.41	-278.77	1155.31	1052.58	-282.26	1134.15	1025.10	-272.18	1127.81	777.15	-288.38	1008.57	760.54	-290.92	1004.18	469.35	-297.28	1118.02	445.71	-279.36	1133.84	417.20	-294.99	1036.93	-8.12	132.96	85.04
2.03000	1118.62	-277.40	1157.09	1051.81	-280.98	1135.76	1024.39	-271.16	1129.33	776.85	-288.36	1009.21	760.18	-290.89	1004.74	468.91	-296.59	1118.23	445.36	-279.28	1134.09	416.74	-294.99	1037.19	-8.18	132.83	85.17
2.03500	1117.81	-276.04	1158.69	1051.08	-279.81	1137.21	1023.65	-270.16	1130.73	776.50	-288.34	1009.69	759.84	-290.87	1005.18	468.52	-296.30	1118.46	445.02	-279.19	1134.35	416.27	-294.98	1037.44	-8.25	132.66	85.28
2.04000	1117.03	-274.75	1160.07	1050.33	-278.68	1138.43	1022.93	-269.13	1131.91	776.17	-288.36	1010.05	759.48	-290.84	1005.50	469.31	-296.04	1119.04	444.69	-279.12	1134.62	415.75	-294.99	1037.70	-8.30	132.35	85.26
2.04500	1116.22	-273.48	1161.26	1049.64	-277.53	1139.50	1022.16	-268.09	1132.85	775.80	-288.40	1010.30	759.07	-290.88	1005.70	469.20	-295.28	1119.33	444.37	-279.01	1134.88	415.21	-295.03	1037.96	-8.35	132.15	85.34
2.05000	1115.49	-272.22	1162.21	1048.96	-276.40	1140.39	1021.26	-267.03	1133.71	775.44	-288.38	1010.44	758.65	-290.87	1005.79	468.79	-294.93	1119.52	444.01	-278.83	1135.12	414.64	-295.05	1038.20	-8.47	131.94	85.43
2.05500	1114.72	-271.03	1163.02	1048.23	-275.29	1141.17	1020.49	-266.13	1134.40	775.08	-288.35	1010.51	758.24	-290.88	1005.79	468.26	-294.73	1119.69	443.67	-278.70	1135.31	414.09	-295.08	1038.41	-8.59	131.77	85.53
2.06000	1114.01	-269.94	1163.61	1047.49	-274.18	1141.77	1019.64	-265.02	1135.01	774.71	-288.33	1010.49	757.84	-290.88	1005.74	467.90	-294.03	1119.85	443.33	-278.52	1135.50	413.52	-295.11	1038.62	-8.77	131.57	85.62
2.06500	1113.22	-268.85	1164.06	1046.71	-273.11	1142.21	1018.95	-264.01	1135.40	774.23	-288.27	1010.43	757.38	-290.87	1005.66	467.57	-293.75	1120.00	443.02	-278.36	1135.68	412.99	-295.14	1038.80	-8.86	131.42	85.69
2.07000	1112.55	-267.82	1164.21	1046.03	-272.11	1142.43	1018.22	-262.96	1135.63	773.78	-288.25	1010.26	756.91	-290.93	1005.48	467.27	-293.49	1120.09	442.73	-278.20	1135.81	412.44	-295.18	1038.98	-9.02	131.26	85.79
2.07500	1111.86	-266.87	1164.21	1045.38	-271.14	1142.52	1017.53	-261.97	1135.67	773.31	-288.28	1010.01	756.45	-290.95	1005.23	466.96	-293.29	1120.16	442.45	-277.99	1135.92	411.87	-295.21	1039.16	-9.16	131.12	85.88
2.08000	1111.25	-265.90	1163.99	1044.77	-270.24	1142.43	1016.92	-261.11	1135.62	772.86	-288.32	1009.67	756.00	-290.97	1004.92	466.49	-293.05	1120.18	442.15	-277.80	1135.99	411.29	-295.25	1039.35	-9.33	130.99	86.00
2.08500	1110.62	-264.91	1163.69	1044.12	-269.30	1142.21	1016.36	-260.17	1135.46	772.40	-288.40	1009.27	755.52	-291.04	1004.52	466.18	-292.87	1120.23	441.85	-277.62	1136.07	410.71	-295.32	1039.48	-9.45	130.85	86.07
2.09000	1110.01	-263.93	1163.17	1043.47	-268.34	1141.84	1015.84	-259.32	1135.11	771.92	-288.47	1008.82	754.96	-291.10	1004.08	465.83	-292.67	1120.22	441.55	-277.44	1136.13	410.10	-295.42	1039.60	-9.60	130.74	86.16
2.09500	1109.40	-263.09	1162.56	1042.82	-267.51	1141.34	1015.28	-258.43	1134.62	771.45	-288.50	1008.31	754.41	-291.12	1003.55	465.55	-292.51	1120.21	441.26	-277.26	1136.16	409.46	-295.48	1039.68	-9.71	130.62	86.25
2.10000	1108.81	-262.28	1161.76	1042.21	-266.66	1140.69	1014.53	-257.67	1133.94	770.89	-288.48	1007.79	753.85	-290.40	1003.03	465.18	-292.35	1120.11	440.97	-277.10	1136.18	408.82	-295.50	1039.77	-9.82	130.55	86.37
2.10500	1108.42	-261.67	1160.83	1041.69	-265.95	1139.92	1013.83	-256.90	1133.29	770.29	-288.48	1007.16	753.33	-290.32	1002.41	464.79	-292.13	1120.04	440.67	-276.95	1136.16	408.17	-295.41	1039.82	-9.98	130.44	86.47
2.11000	1108.02	-260.96	1159.73	1041.21	-265.23	1139.00	1013.10	-255.94	1132.49	769.66	-288.47	1006.49	752.75	-289.63	1001.79	464.42	-291.87	1119.88	440.32	-276.78	1136.10	407.52	-295.31	1039.85	-10.12	130.36	86.54
2.11500	1107.49	-260.32	1158.58	1040.68	-264.54	1138.00	1012.60	-255.38	1131.59	769.07	-288.48	1005.75	752.18	-289.49	1001.08	464.02	-291.71	1119.75	439.93	-276.66	1136.04	406.84	-295.20	1039.85	-10.20	130.29	86.60
2.12000	1106.80	-259.78	1157.30	1040.12	-263.85	1136.85	1011.99	-254.76	1130.56	768.52	-288.57	1004.99	752.78	-289.52	1000.46	463.50	-291.52	1119.55	439.56	-276.49	1135.96	406.14	-295.17	1039.81	-10.23	130.34	86.79
2.12500	1106.10	-259.33	1155.93	1039.47	-263.19	1135.64	1011.51	-254.40	1129.44	767.99	-287.86	1004.16	752.33	-288.77	999.67	463.07	-291.38	1119.35	439.18	-276.34	1135.88	405.46	-295.10	1039.73	-10.29	130.30	86.85
2.13000	1105.62	-258.81	1154.40	1038.97	-262.61	1134.31	1011.12	-253.84	1128.16	767.38	-287.05	1003.27	752.89	-288.63	998.97	462.64	-291.15	1119.11	438.81	-276.23	1135.76	404.77	-295.01	1039.64	-10.35	130.39	87.01
2.13500	1105.12	-258.37	1152.81	1038.51	-262.04	1132.93	1010.63	-253.37	1126.77	766.69	-286.22	1002.35	751.21	-287.88	997.95	462.29	-291.00	1118.88	438.40	-276.08	1135.62	404.08	-294.93	1039.50	-10.40	130.27	86.94
2.14000	1104.65	-258.13	1151.11	1038.16	-261.59	1131.43	1010.18	-252.78	1125.30	765.94	-286.10	1001.41	750.35	-287.74	997.00	461.78	-290.81	1118.61	437.99	-275.94	1135.44	403.38	-294.77	1039.38	-10.41	130.25	86.96
2.14500	1104.05	-257.89	1149.38	1037.77	-261.15	1129.85	1009.41	-252.45	1123.94	766.39	-285.95	1000.50	749.64	-287.71	996.02	461.29	-290.64	1118.33	437.56	-275.80	1135.25	402.67	-294.58	1039.22	-10.51	130.09	86.98
2.15000	1103.63	-257.62	1147.49	1037.29	-260.67	1128.20	1009.03	-252.03	1122.31	767.00	-285.82	999.57	748.90	-287.64	995.03	460.71	-290.50	1118.02	437.13	-275.61	1135.03	401.95	-294.45	1039.07	-10.68	130.00	87.02
2.15500	1103.27	-257.39	1145.48	1036.86	-260.27	1126.46	1008.41	-251.65	1120.66	767.68	-285.75	998.60	749.39	-288.30	994.12	460.20	-290.39	1117.70	436.69	-275.41	1134.81	401.19	-294.34	1038.91	-10.91	129.98	87.18
2.16000	1102.99	-257.12	1143.38	1036.42	-259.83	1124.67	1008.23	-251.34	1118.79	765.91	-285.72	997.45	747.59	-287.64	992.95	459.73	-290.29	1117.34	436.28	-275.23	1134.58	400.42	-294.28	1038.71	-10.90	130.03	87.13
2.16500	1102.64	-256.99	1141.23	1036.10	-259.52	1122.77	1007.66	-251.20	1117.18	763.93	-285.69	996.21	746.61	-287.46	991.83	459.21	-290.22	1116.98	435.83	-275.06	1134.31	399.64	-294.23	1038.49	-10.89	130.07	87.16
2.17000	1102.31	-256.90	1138.97	1035.72	-259.27	1120.81	1007.39	-250.76	1115.41	761.87	-285.62	994.96	744.67	-286.73	990.57	458.72	-290.67	1116.63	435.38	-274.89	1134.02	398.89	-294.15	1038.25	-10.88	130.08	87.07
2.17500	1101.99	-256.80	1136.57	1035.38	-259.10	1118.78	1006.86	-250.44	1113.67	761.04	-285.49	993.81	743.74	-285.83	989.41	458.13	-290.69	1116.30	434.89	-274.76	1133.70	398.13	-294.03	1038.00	-11.04	130.05	87.06
2.18000	1101.68	-256.75	1134.11	1035.01	-258.90	1116.69	1006.56	-250.15	1111.71	760.26	-285.45	992.64	744.15	-285.64	988.39	457.71	-291.10	1115.93	434.42	-274.57	1133.40	397.40	-293.89	1037.74	-11.17	130.20	87.16
2.18500	1101.36	-256.77	1131.55	1034.62	-258.70	1114.55	1006.07	-250.13	1109.68	759.46	-285.37	991.47	744.68	-284.90	987.40	457.30	-291.15	1115.56	433.96	-274.39	1133.10	396.71	-293.74	1037.47	-11.32	130.36	87.25
2.19000	1101.00	-256.87	1128.98	1034.17	-258.55	1112.37	1005.76	-249.87	1107.56	758.69	-285.31	990.24	745.22	-284.76	986.35	455.79	-291.57	1114.86	433.49	-274.25	1132.78	396.01	-293.56	1037.19	-11.45	130.66	87.47
2.19500	1100.65	-256.95	1126.31	1033.71	-258.43	1110.14	1005.40	-249.87	1105.32	757.87	-284.53	988.99	744.62	-284.00	985.15	455.05	-291.62	1114.39	433.01	-274.12	1132.47	395.31	-293.36	1036.90	-11.59	130.78	87.48
2.20000	1100.25	-257.11	1123.62	1033.37	-258.41	1107.82	1004.94	-249.62	1103.22	758.14	-283.77	987.78	743.80	-283.10	983.90	453.40	-292.04	1113.67	432.53	-273.97	1132.13	394.56	-293.12	1036.55	-11.78	130.86	87.59
2.20500	1099.90	-257.32	1120.82	1033.04	-258.45	1105.41	1004.39	-249.64	1101.03	758.50	-283.00	986.61	742.96	-282.26	982.64	453.77	-292.05	1113.47	432.07	-273.87	1131.79	393.85	-292.86	1036.19	-11.97	130.70	87.44
2.21000	1099.55	-257.50	1117.95	1032.72	-258.46	1102.96	1003.98	-249.57	1098.86	758.89	-282.20	985.42	742.10	-281.41	981.38	452.45	-291.98	1112.78	431.57	-273.80	1131.42	393.15	-292.62	1035.84	-12.19	130.76	87.50
2.21500	1099.24	-257.81	1115.03	1032.33	-258.54	1100.43	1003.65	-249.67	1096.47	758.19	-281.39	984.09	741.23	-281.22	980.10	452.74	-291.94	1112.57	431.07	-273.74	1131.10	392.48	-292.36	1035.49	-12.29	130.74	87.32
2.22000	1098.87	-258.05	1112.11	1031.94	-258.59	1097.88	1003.40	-249.63	1094.00	757.34	-280.63	982.72	740.37	-281.21	978.79	451.31	-291.86	1111.85	430.55	-273.67	1130.74	391.78	-292.07	1035.11	-12.33	130.95	87.35
2.22500	1098.50	-258.39	1109.10	1031.56	-258.66	1095.21	1002.98	-249.67	1091.50	756.52	-279.83	981.32	739.52	-281.15	977.43	451.58	-291.28	1111.65	430.05	-273.62	1130.37	391.08	-291.77	1034.74	-12.37	130.92	87.18
2.23000	1098.24	-258.77	1105.98	1031.23	-258.79	1092.48	1002.71	-249.71	1088.89	755.64	-279.06	979.88	738.61	-281.14	976.04	451.28	-291.11	1111.23	429.54	-273.55	1129.98	390.37	-291.44	1034.38	-12.42	131.00	87.08
2.23500	1097.87	-259.12	1102.78	1030.92	-259.00	1089.67	1002.22	-249.93	1086.30	754.76	-278.94	978.40	737.65	-281.13	974.60	451.83	-290.55	1111.10	429.04	-273.50	1129.62	389.65	-291.15	1034.05	-12.48	130.91	86.87
2.24000	1097.54	-259.49	1099.49	1030.61	-259.15	1086.82	1001.97	-249.85	1083.55	753.79	-278.97	976.92	736.64	-281.14	973.18	451.47	-290.40	1110.72	428.53	-273.46	1129.27	388.94	-290.86	1033.70	-12.53	131.00	86.75
2.24500	1097.03	-259.94	1096.19	1030.27	-259.37	1083.94	1001.69	-250.15	1080.70	752.85	-278.99	975.41	735.66	-281.13	971.72	450.97	-289.89	1110.27	428.05	-273.40	1128.92	388.21	-290.59	1033.34	-12.54	131.11	86.68
2.25000	1096.63	-260.32	1092.76	1029.89	-259.62	1080.94	1001.52	-250.26	1077.81	751.80	-279.02	973.87	734.68	-281.13	970.26	450.42	-289.71	1109.81	427.56	-273.30	1128.55	387.46	-290.29	1032.99	-12.56	131.25	86.62
2.25500	1096.10	-260.81	1089.32	1029.49	-259.87	1077.86	1000.92	-250.56	1075.01	750.78	-279.07	972.28	733.70	-281.18	968.77	449.88	-289.16	1109.38	427.06	-273.27	1128.19	386.70	-290.02	1032.66	-12.56	131.32	86.55
2.26000	1095.76	-261.25	1085.71	1029.15	-260.09	1074.68	1000.62	-250.73	1072.06	749.70	-279.13	970.68	732.68	-281.23	967.27	449.34	-289.02	1108.95	426.55	-273.23	1127.83	385.91	-289.74	1032.34	-12.60	131.43	86.49
2.26500	1095.24	-261.76	1082.07	1028.79	-260.39	1071.43	1000.02	-251.14	1069.04	748.69	-279.20	969.04	731.64	-281.28	965.73	448.84	-288.98	1108.53	426.04	-273.15	1127.49	385.13	-289.47	1032.03	-12.60	131.51	86.41
2.27000	1094.87	-262.21	1078.27	1028.41	-260.75	1068.10	999.87	-251.25	1065.79	747.64	-279.28	967.38	730.58	-281.36	964.14	448.35	-288.99	1108.12	425.54	-273.03	1127.13	384.36	-289.18	1031.70	-12.62	131.66	86.31
2.27500	1094.26	-262.78	1074.43	1027.90	-261.14	1064.72	999.17	-251.63	1062.60	746.56	-279.30	965.65	729.48	-281.40	962.51	447.73	-289.00	1107.69	425.04	-272.92	1126.83	383.61	-288.88	1031.37	-12.67	131.74	86.20
2.28000	1093.91	-263.29	1070.41	1027.45	-261.51	1061.26	998.72	-252.23	1059.29	745.43	-279.39	963.89	728.35	-281.49	960.81	447.13	-288.97	1107.27	424.55	-272.77	1126.54	382.83	-288.57	1031.06	-12.81	131.85	86.09
2.28500	1093.35	-263.83	1066.31	1026.94	-261.83	1057.71	997.96	-252.78	1056.05	744.26	-279.48	962.04	727.22	-281.58	959.05	446.51	-288.94	1106.83	424.04	-272.65	1126.25	382.07	-288.29	1030.80	-12.95	131.90	85.97
2.29000	1092.90	-264.38	1062.09	1026.35	-262.16	1054.07	997.45	-252.95	1052.59	743.12	-279.63	960.10	726.01	-281.68	957.23	446.02	-288.91	1106.46	423.52	-272.53	1125.91	381.28	-288.01	1030.54	-13.11	131.96	85.83
2.29500	1092.20	-265.02	1057.82	1025.69	-262.57	1050.34	996.88	-253.49	1049.05	741.90	-279.74	958.08	724.80	-281.77	955.36	445.46	-288.86	1106.08	423.00	-272.39	1125.60	380.52	-287.67	1030.30	-13.22	132.02	85.67
2.30000	1091.52	-265.60	1053.42	1025.03	-262.96	1046.55	996.18	-253.68	1045.47	740.64	-279.88	956.02	723.53	-281.89	953.43	444.92	-288.81	1105.68	422.47	-272.26	1125.28	379.74	-287.32	1030.06	-13.39	132.05	85.52
2.30500	1090.80	-266.27	1048.84	1024.44	-263.36	1042.57	995.40	-254.15	1041.87	739.28	-279.99	953.94	722.27	-282.01	951.45	444.32	-288.84	1105.28	421.93	-272.15	1125.00	378.94	-287.00	1029.86	-13.55	132.09	85.36
2.31000	1090.05	-266.83	1044.11	1023.81	-263.80	1038.51	994.71	-254.51	1038.14	737.85	-280.10	951.80	720.90	-282.13	949.43	443.65	-288.83	1104.85	421.38	-272.01	1124.70	378.11	-286.68	1029.67	-13.75	132.15	85.21
2.31500	1089.28	-267.53	1039.24	1023.12	-264.20	1034.31	994.13	-254.87	1034.17	736.45	-280.23	949.59	719.48	-282.86	947.36	443.02	-288.78	1104.45	420.83	-271.89	1124.40	377.27	-286.34	1029.48	-13.91	132.22	85.04
2.32000	1088.41	-268.23	1034.25	1022.38	-264.62	1030.04	993.49	-255.07	1030.09	734.95	-281.00	947.33	718.03	-283.69	945.26	442.49	-288.70	1104.07	420.29	-271.75	1124.11	376.47	-286.03	1029.27	-14.10	132.29	84.84
2.32500	1087.57	-268.94	1029.06	1021.59	-264.95	1025.63	992.65	-255.43	1025.98	733.50	-281.88	945.02	716.52	-284.57	943.08	441.93	-288.66	1103.68	419.72	-271.62	1123.83	375.65	-285.70	1029.06	-14.38	132.33	84.62
2.33000	1086.72	-269.62	1023.73	1020.70	-265.36	1021.14	991.78	-255.72	1021.80	731.93	-282.74	942.65	714.95	-284.89	940.84	441.26	-288.61	1103.29	419.13	-271.51	1123.55	374.76	-285.44	1028.86	-14.70	132.37	84.41
2.33500	1085.75	-270.22	1018.31	1019.88	-265.71	1016.48	990.81	-255.96	1017.54	730.33	-283.51	940.23	712.31	-285.11	938.39	440.41	-288.56	1102.84	418.51	-271.41	1123.26	373.85	-285.19	1028.66	-14.94	132.30	84.10
2.34000	1084.77	-270.85	1012.74	1018.97	-266.03	1011.71	989.77	-256.35	1013.12	727.63	-283.78	937.68	709.45	-285.35	935.88	439.74	-288.51	1102.37	417.91	-271.29	1122.93	372.95	-284.87	1028.45	-15.16	132.26	83.76
2.34500	1083.59	-271.50	1007.07	1018.11	-266.37	1006.83	988.86	-256.72	1008.61	724.75	-283.97	935.08	706.55	-286.14	933.34	439.11	-288.44	1101.93	417.30	-271.18	1122.59	372.06	-284.52	1028.23	-15.35	132.22	83.38
2.35000	1082.52	-272.15	1001.20	1016.97	-266.69	1001.93	987.80	-256.95	1004.00	721.86	-284.78	932.40	705.61	-287.06	931.09	438.49	-288.37	1101.48	416.65	-271.04	1122.26	371.11	-284.22	1028.02	-15.71	132.40	83.26
2.35500	1081.28	-272.72	995.22	1015.93	-266.94	996.85	986.61	-257.37	999.31	719.99	-285.63	929.74	704.98	-287.98	928.87	437.71	-288.32	1101.03	415.97	-270.90	1121.94	370.09	-283.95	1027.80	-16.05	132.59	83.20
2.36000	1080.03	-273.30	989.08	1014.84	-267.19	991.64	985.13	-257.71	994.64	719.08	-286.51	927.24	704.26	-288.89	926.62	436.87	-288.25	1100.53	415.27	-270.76	1121.61	369.03	-283.64	1027.56	-16.46	132.74	83.14
2.36500	1078.54	-273.80	982.85	1013.74	-267.38	986.29	983.77	-257.91	989.82	718.25	-287.36	924.71	701.48	-289.78	923.96	436.01	-288.23	1100.00	414.58	-270.68	1121.24	367.98	-283.35	1027.28	-16.82	132.67	82.83
2.37000	1077.04	-274.26	976.52	1012.49	-267.61	980.93	982.55	-258.14	984.88	716.30	-288.24	922.05	698.30	-290.10	921.21	435.16	-288.18	1099.43	413.89	-270.58	1120.84	366.94	-283.02	1026.98	-17.19	132.61	82.46
2.37500	1075.50	-274.77	970.02	1011.23	-267.75	975.45	981.19	-258.48	979.72	713.28	-288.48	919.13	695.07	-290.29	918.40	434.26	-288.16	1098.86	413.18	-270.49	1120.46	365.88	-282.66	1026.73	-17.57	132.58	82.10
2.38000	1073.96	-275.17	963.36	1009.89	-267.95	969.86	979.70	-258.77	974.56	710.06	-288.65	916.13	692.77	-290.51	915.72	433.35	-288.10	1098.25	412.48	-270.40	1120.06	364.81	-282.31	1026.47	-18.02	132.64	81.86
2.38500	1072.38	-275.61	956.57	1008.46	-268.03	964.19	978.21	-259.06	969.19	707.79	-288.84	913.18	690.62	-291.33	912.99	432.43	-288.02	1097.67	411.75	-270.29	1119.72	363.70	-281.86	1026.22	-18.50	132.72	81.63
2.39000	1070.67	-276.09	949.70	1006.92	-268.19	958.45	976.69	-259.25	963.74	705.58	-289.12	910.22	688.43	-291.73	910.19	431.54	-287.94	1097.00	411.00	-270.19	1119.35	362.58	-281.36	1025.92	-18.98	132.81	81.37
2.39500	1068.81	-276.52	942.76	1005.37	-268.40	952.59	974.98	-259.38	958.29	703.30	-289.42	907.19	686.20	-292.56	907.32	430.62	-287.86	1096.35	410.26	-270.09	1118.98	361.41	-280.95	1025.66	-19.46	132.86	81.15
2.40000	1066.86	-276.93	935.70	1003.72	-268.56	946.64	973.08	-259.52	952.87	700.92	-289.78	904.12	683.87	-292.96	904.41	429.64	-287.80	1095.70	409.53	-270.00	1118.54	360.27	-280.58	1025.38	-19.99	132.89	80.91
2.40500	1064.81	-277.34	928.52	1002.05	-268.75	940.57	971.23	-259.87	947.25	698.52	-289.57	900.98	681.46	-292.71	901.50	428.74	-287.78	1095.10	408.83	-269.95	1118.13	359.13	-280.20	1025.10	-20.49	132.91	80.66
2.41000	1062.72	-277.81	921.24	1000.39	-269.05	934.42	969.22	-260.06	941.43	696.03	-289.36	897.82	680.00	-292.37	898.73	427.81	-287.66	1094.48	408.13	-269.86	1117.72	358.05	-279.78	1024.78	-21.01	133.11	80.50
2.41500	1060.47	-278.32	913.93	998.82	-269.28	928.18	967.16	-260.18	935.43	694.50	-289.13	894.79	677.62	-292.09	895.78	426.99	-287.56	1093.83	407.43	-269.79	1117.32	356.92	-279.36	1024.47	-21.49	133.21	80.23
2.42000	1058.09	-278.92	906.48	997.18	-269.55	921.86	965.07	-260.53	929.27	692.92	-288.94	891.75	674.99	-291.84	892.72	426.11	-287.42	1093.17	406.75	-269.65	1116.89	355.81	-278.95	1024.22	-22.02	133.30	79.95
2.42500	1055.55	-279.47	898.99	995.36	-269.84	915.45	962.93	-260.90	923.09	691.36	-288.72	888.72	672.32	-291.59	889.66	425.29	-287.35	1092.49	406.11	-269.53	1116.46	354.66	-278.52	1023.97	-22.51	133.40	79.70
2.43000	1052.86	-280.00	891.31	993.21	-270.19	908.94	960.64	-261.18	916.77	688.76	-288.54	885.53	670.69	-291.39	886.76	424.42	-287.25	1091.77	405.51	-269.44	1115.99	353.55	-278.08	1023.79	-23.02	133.67	79.62
2.43500	1050.08	-280.69	883.63	990.92	-270.53	902.30	958.19	-261.48	910.43	686.01	-288.36	882.31	669.14	-291.14	883.87	423.60	-287.16	1091.07	404.90	-269.35	1115.53	352.42	-277.67	1023.53	-23.41	133.94	79.54
2.44000	1047.24	-281.23	875.84	988.44	-270.91	895.54	955.59	-261.86	904.02	683.18	-288.15	879.07	666.54	-290.86	880.81	422.72	-287.08	1090.37	404.27	-269.25	1115.09	351.30	-277.27	1023.31	-23.76	134.09	79.31
2.44500	1044.21	-281.83	868.00	985.93	-271.29	888.64	952.99	-262.21	897.61	680.29	-287.96	875.81	663.66	-291.12	877.70	421.85	-286.95	1089.71	403.61	-269.17	1114.67	350.15	-276.94	1023.03	-24.07	134.19	79.02
2.45000	1041.06	-282.33	860.05	983.21	-271.68	881.64	950.20	-262.61	891.21	677.35	-288.27	872.54	660.76	-290.91	874.59	421.02	-286.86	1089.02	402.99	-269.04	1114.24	349.00	-276.53	1022.81	-24.37	134.27	78.75
2.45500	1037.67	-282.83	852.10	980.44	-272.09	874.58	947.52	-263.14	884.59	674.34	-288.60	869.22	657.76	-290.62	871.43	420.30	-286.78	1088.35	402.42	-268.95	1113.78	347.86	-276.11	1022.58	-24.67	134.37	78.47
2.46000	1034.27	-283.27	843.94	977.53	-272.48	867.44	944.61	-263.43	877.88	671.29	-288.93	865.85	654.71	-290.81	868.26	419.59	-286.64	1087.67	401.85	-268.89	1113.35	346.78	-275.73	1022.38	-25.02	134.46	78.17
2.46500	1030.71	-283.65	835.74	974.52	-272.82	860.24	941.70	-263.96	871.09	668.19	-289.15	862.44	651.62	-291.08	865.07	418.81	-286.61	1086.98	401.27	-268.85	1112.91	345.70	-275.27	1022.19	-25.37	134.56	77.86
2.47000	1027.24	-283.02	827.27	971.39	-273.16	852.89	938.59	-264.49	864.25	664.99	-289.39	858.98	648.48	-291.33	861.84	418.05	-286.57	1086.29	400.70	-268.75	1112.48	344.63	-274.90	1022.01	-25.74	134.65	77.54
2.47500	1023.61	-283.41	818.89	968.18	-273.50	845.46	935.35	-265.02	857.41	661.76	-289.67	855.50	645.29	-291.57	858.58	417.33	-286.49	1085.63	400.17	-268.65	1112.06	343.60	-274.46	1021.86	-26.02	134.71	77.21
2.48000	1019.85	-283.76	810.32	964.90	-273.77	837.90	932.06	-265.41	850.31	658.33	-289.91	851.99	641.97	-291.78	855.28	416.60	-286.39	1085.01	399.66	-268.53	1111.65	342.57	-274.06	1021.73	-26.30	134.80	76.86
2.48500	1015.89	-284.07	801.74	961.48	-274.09	830.28	928.53	-265.88	843.29	654.94	-290.14	848.44	638.62	-292.00	851.97	415.84	-286.32	1084.41	399.17	-268.44	1111.26	341.50	-273.70	1021.59	-26.59	134.86	76.53
2.49000	1012.88	-284.32	792.73	957.93	-274.37	822.52	925.01	-266.36	836.00	651.54	-290.32	844.86	635.23	-292.66	848.62	415.09	-286.21	1083.80	398.70	-268.37	1110.84	340.42	-273.34	1021.51	-26.61	134.96	76.23
2.49500	1008.62	-284.68	784.07	954.17	-274.63	814.73	921.34	-266.95	828.93	648.14	-290.59	841.31	631.77	-292.95	845.25	414.42	-286.13	1083.17	398.27	-268.27	1110.43	339.39	-272.97	1021.42	-26.79	135.01	75.90
2.50000	1004.21	-284.97	775.33	950.32	-274.45	806.79	917.72	-267.43	821.50	644.59	-290.84	837.76	628.26	-293.17	841.90	413.75	-286.07	1082.50	397.88	-268.18	1110.02	338.47	-272.63	1021.34	-26.87	135.13	75.54
2.50500	998.55	-285.34	766.85	946.28	-274.68	798.86	913.81	-266.97	814.24	640.90	-291.11	834.26	624.68	-293.37	838.57	413.12	-285.98	1081.85	397.50	-267.77	1109.63	337.55	-272.30	1021.22	-27.29	135.21	75.15
2.51000	993.85	-285.65	757.97	942.15	-274.94	790.85	909.75	-267.10	806.78	637.24	-291.37	830.72	620.29	-293.59	835.10	412.48	-285.87	1081.20	397.09	-267.22	1109.19	336.65	-272.00	1021.07	-27.44	135.20	74.62
2.51500	988.96	-285.88	749.11	937.88	-275.17	782.89	905.37	-266.73	799.62	633.51	-291.61	827.28	616.54	-293.84	831.80	411.86	-285.74	1080.55	396.69	-266.64	1108.73	335.76	-271.62	1020.89	-27.66	135.26	74.19
2.52000	983.91	-286.25	740.20	934.11	-275.42	774.87	901.16	-266.72	792.20	629.80	-291.92	823.88	612.86	-294.08	828.55	411.20	-285.60	1079.87	396.30	-266.07	1108.24	334.90	-271.29	1020.71	-28.18	135.40	73.80
2.52500	978.82	-287.53	731.27	929.62	-275.68	766.85	897.99	-266.21	784.62	626.07	-292.20	820.58	609.95	-294.34	825.51	410.54	-285.41	1079.16	396.72	-265.56	1107.97	334.02	-270.93	1020.54	-28.34	135.71	73.82
2.53000	973.61	-287.65	722.26	924.98	-275.94	758.88	894.01	-266.25	776.87	622.36	-292.84	817.29	606.30	-294.60	822.39	409.93	-285.26	1078.44	397.30	-265.01	1107.77	333.12	-270.61	1020.44	-28.51	135.95	73.80
2.53500	968.38	-287.75	713.23	919.64	-276.23	750.90	890.75	-265.67	769.28	618.48	-293.18	814.01	602.60	-294.88	819.32	409.29	-285.13	1077.70	397.89	-264.48	1107.58	332.23	-270.22	1020.26	-28.36	136.13	73.74
2.54000	962.88	-287.00	704.29	914.78	-276.46	743.00	885.38	-265.65	761.89	614.61	-293.42	810.77	598.91	-295.12	816.28	408.64	-284.97	1077.01	397.72	-263.90	1107.14	331.32	-269.82	1020.07	-28.59	136.35	73.45
2.54500	957.24	-287.01	695.41	909.84	-276.66	735.05	881.73	-265.83	754.53	610.69	-293.74	807.52	595.20	-294.96	813.28	407.98	-284.80	1076.28	397.38	-263.34	1106.62	330.39	-269.47	1019.87	-28.85	136.51	73.12
2.55000	951.43	-286.97	686.55	904.76	-276.89	727.21	876.14	-265.86	747.22	606.00	-293.96	804.09	591.41	-295.12	810.28	407.36	-284.61	1075.58	397.05	-262.77	1106.08	329.52	-269.15	1019.72	-29.18	136.64	72.77
2.55500	945.59	-286.92	677.64	899.62	-277.52	719.31	872.27	-265.90	739.91	601.96	-294.16	800.85	587.63	-295.32	807.33	406.76	-284.41	1074.84	396.72	-262.22	1105.57	328.68	-268.77	1019.56	-29.48	136.77	72.41
2.56000	940.55	-286.85	668.65	894.36	-277.70	711.52	866.43	-266.87	732.80	597.98	-294.34	797.64	583.83	-295.53	804.38	406.22	-284.20	1074.15	396.42	-262.01	1105.03	327.88	-268.39	1019.43	-29.29	136.94	72.04
2.56500	934.44	-286.71	659.87	889.03	-277.81	703.74	861.20	-267.21	725.76	594.81	-294.54	794.69	579.95	-295.70	801.46	405.73	-283.99	1073.46	396.12	-261.92	1104.54	327.09	-267.94	1019.34	-29.51	137.15	71.65
2.57000	928.21	-286.71	651.17	883.57	-277.93	696.08	854.93	-268.21	718.82	590.81	-294.73	791.51	575.98	-295.86	798.48	405.19	-283.83	1072.80	395.87	-261.79	1104.04	326.29	-267.59	1019.30	-29.79	137.29	71.30
2.57500	920.95	-286.68	642.76	878.03	-277.96	688.44	849.62	-268.43	711.69	586.70	-294.85	788.37	571.99	-296.00	795.54	404.62	-283.62	1072.12	395.67	-261.66	1103.58	325.50	-267.25	1019.22	-30.53	137.44	70.93
2.58000	914.46	-286.68	634.32	872.40	-277.96	680.86	844.40	-269.45	704.70	582.50	-294.99	785.22	567.94	-296.45	792.61	404.12	-283.44	1071.45	395.47	-261.51	1103.09	324.77	-266.92	1019.09	-30.80	137.52	70.52
2.58500	907.90	-286.74	625.92	866.67	-277.96	673.31	839.05	-269.59	697.78	578.30	-295.06	782.19	563.85	-296.93	789.75	403.66	-283.27	1070.78	395.25	-261.76	1102.63	324.06	-266.59	1018.96	-31.04	137.62	70.07
2.59000	901.23	-286.90	617.64	860.87	-277.65	665.83	833.43	-269.76	691.11	574.07	-295.46	779.21	559.64	-297.04	786.94	403.23	-283.04	1070.14	394.99	-261.72	1102.13	323.40	-266.28	1018.84	-31.29	137.67	69.59
2.59500	894.28	-287.87	609.67	854.97	-277.56	658.42	827.92	-269.18	684.07	569.79	-295.92	776.26	555.45	-297.10	784.19	402.72	-282.87	1069.49	394.77	-261.95	1101.64	322.69	-265.96	1018.73	-31.46	137.82	69.17
2.60000	887.15	-288.07	601.89	848.97	-277.56	651.07	822.17	-268.37	677.40	565.43	-296.31	773.38	550.45	-297.12	781.28	402.24	-282.69	1068.84	394.55	-261.89	1101.13	322.01	-265.61	1018.63	-31.68	137.76	68.59
2.60500	879.98	-288.30	594.15	842.80	-277.55	643.90	816.43	-267.52	670.45	560.22	-296.77	770.36	545.36	-297.19	778.41	401.81	-282.52	1068.17	393.60	-262.10	1100.36	321.37	-265.25	1018.47	-31.92	137.66	67.77
2.61000	872.81	-288.46	586.49	837.04	-277.54	636.98	811.50	-266.76	664.00	554.98	-297.17	767.43	541.04	-297.24	775.88	401.29	-282.38	1067.50	393.16	-262.37	1099.79	320.76	-264.90	1018.29	-32.73	137.56	67.22
2.61500	865.58	-288.69	578.98	830.73	-277.48	630.10	806.86	-265.95	657.36	549.77	-297.58	764.59	537.62	-297.29	773.68	400.77	-282.22	1066.87	392.16	-262.67	1099.05	320.11	-264.63	1018.08	-33.08	137.66	66.69
2.62000	858.17	-288.84	571.70	824.34	-277.50	623.35	802.01	-265.87	651.06	545.44	-297.99	762.06	534.34	-297.63	771.64	400.24	-282.02	1066.23	392.45	-262.58	1098.74	319.46	-264.36	1017.93	-33.39	137.87	66.57
2.62500	850.78	-289.03	564.50	817.32	-277.53	616.69	796.12	-265.67	644.80	541.16	-298.07	759.64	530.30	-298.00	769.42	399.77	-281.85	1065.62	391.65	-262.78	1098.03	318.78	-263.98	1017.79	-33.08	138.03	66.03
2.63000	843.46	-289.03	557.39	810.73	-277.26	610.30	789.93	-265.71	638.72	536.91	-298.11	757.24	526.16	-298.10	767.27	399.32	-281.68	1065.01	391.21	-262.74	1097.44	318.15	-263.65	1017.65	-33.16	138.17	65.55
2.63500	836.05	-289.12	550.51	804.19	-277.36	603.94	783.82	-265.48	632.81	532.62	-298.14	754.91	521.99	-297.75	765.15	398.78	-281.51	1064.41	390.22	-262.59	1096.70	317.44	-263.26	1017.52	-33.28	138.30	64.96
2.64000	828.72	-289.16	543.57	797.64	-277.40	597.74	776.68	-265.51	627.02	528.32	-297.77	752.64	517.06	-297.40	762.82	398.30	-281.32	1063.81	390.44	-262.07	1096.39	316.76	-262.92	1017.44	-33.33	138.36	64.56
2.64500	821.17	-289.08	536.99	791.02	-277.77	591.62	769.61	-266.26	621.24	524.76	-297.45	750.70	512.01	-297.38	760.46	397.78	-281.16	1063.21	390.33	-261.83	1095.97	316.07	-262.58	1017.35	-33.23	138.54	64.04
2.65000	813.76	-289.04	530.37	784.99	-277.94	585.78	762.45	-267.11	615.53	521.28	-297.06	748.79	507.75	-297.41	758.42	397.25	-280.94	1062.63	390.77	-261.33	1095.76	315.41	-262.28	1017.25	-33.64	138.89	63.79
2.65500	806.10	-288.96	524.18	778.35	-277.77	579.93	756.24	-268.18	610.03	517.75	-296.68	746.89	504.32	-297.64	756.71	396.73	-280.74	1062.08	390.72	-261.11	1095.38	314.74	-261.91	1017.11	-33.69	139.26	63.56
2.66000	798.56	-288.90	517.90	771.65	-277.82	574.19	749.79	-269.09	604.65	513.42	-296.24	744.79	500.92	-297.61	755.11	396.27	-280.55	1061.53	391.18	-260.61	1095.19	314.07	-261.54	1017.03	-33.78	139.52	63.47
2.66500	791.05	-288.91	511.83	764.29	-277.89	568.48	743.37	-269.29	599.52	509.02	-295.86	742.78	496.77	-297.84	753.29	395.80	-280.36	1061.00	391.10	-260.06	1094.82	313.38	-261.30	1016.91	-33.27	139.60	63.10
2.67000	783.58	-288.87	505.84	757.48	-278.02	563.01	736.87	-269.44	594.30	504.63	-295.38	740.81	492.49	-298.09	751.51	395.33	-280.18	1060.44	390.83	-259.45	1094.38	312.68	-260.94	1016.87	-33.21	139.70	62.69
2.67500	776.08	-288.95	500.08	751.31	-278.08	557.89	730.47	-268.83	589.54	500.19	-294.90	738.92	487.58	-297.75	749.49	394.76	-280.04	1059.89	390.57	-259.23	1093.96	312.01	-260.55	1016.79	-33.84	139.62	62.16
2.68000	768.42	-288.90	494.60	744.48	-278.12	552.72	724.10	-268.25	584.50	495.74	-294.70	737.07	483.19	-297.34	747.78	394.28	-279.87	1059.39	390.30	-258.76	1093.51	311.35	-260.24	1016.73	-33.86	139.67	61.72
2.68500	760.74	-288.44	489.24	737.62	-278.48	547.66	718.70	-267.63	579.91	491.31	-294.60	735.34	478.23	-297.18	745.94	393.81	-279.72	1058.89	390.09	-258.54	1093.10	310.73	-259.94	1016.69	-34.06	139.45	61.18
2.69000	753.04	-287.88	484.13	730.12	-278.22	542.56	713.32	-267.00	575.17	486.95	-294.49	733.72	473.89	-297.08	744.47	393.35	-279.55	1058.40	389.84	-258.44	1092.67	310.12	-259.66	1016.61	-33.58	139.40	60.73
2.69500	745.39	-287.42	479.06	723.24	-277.93	537.82	707.76	-266.36	570.90	482.59	-294.69	732.22	469.72	-296.95	743.10	392.85	-279.41	1057.93	389.53	-258.35	1092.29	309.51	-259.35	1016.53	-33.73	139.34	60.29
2.70000	737.82	-286.98	474.21	716.42	-277.88	533.20	701.35	-265.59	566.52	478.29	-294.56	730.83	466.34	-296.79	742.11	392.28	-279.30	1057.46	389.16	-258.26	1091.91	308.89	-259.10	1016.37	-33.69	139.59	59.95
2.70500	731.27	-286.51	469.73	709.61	-277.50	528.77	694.97	-264.81	562.28	474.11	-294.45	729.58	463.10	-296.65	741.20	391.68	-279.16	1057.01	388.80	-258.17	1091.56	308.21	-258.77	1016.33	-32.72	139.89	59.71
2.71000	724.70	-286.51	465.46	703.59	-277.35	524.62	688.64	-263.92	558.15	470.04	-294.31	728.40	459.22	-296.27	740.13	391.00	-279.06	1056.56	388.40	-258.09	1091.23	307.49	-258.51	1016.29	-32.45	140.08	59.36
2.71500	718.20	-286.41	461.39	697.62	-276.99	520.61	682.21	-263.19	554.28	465.23	-294.17	727.01	455.24	-296.14	739.10	390.33	-278.90	1056.19	388.00	-258.03	1090.94	306.70	-258.26	1016.27	-32.31	140.09	59.00
2.72000	710.72	-286.35	457.26	690.99	-276.79	516.53	675.86	-263.06	550.42	461.03	-294.04	725.88	451.31	-295.74	738.11	389.63	-278.75	1055.84	387.53	-257.93	1090.65	305.91	-257.91	1016.26	-32.35	140.22	58.64
2.72500	703.35	-285.79	453.25	684.28	-276.64	512.60	669.68	-263.01	546.75	456.95	-293.91	724.82	447.40	-295.27	737.19	388.98	-278.67	1055.51	387.09	-257.88	1090.35	305.07	-257.64	1016.26	-32.25	140.33	58.31
2.73000	695.01	-285.66	449.05	677.60	-276.45	508.80	663.64	-263.60	543.23	453.60	-293.79	724.07	443.59	-295.08	736.29	388.28	-278.54	1055.21	386.63	-257.80	1090.08	304.24	-257.36	1016.33	-33.03	140.56	58.00
2.73500	686.79	-285.60	444.82	671.65	-276.31	505.34	657.54	-263.75	539.96	449.70	-293.63	723.11	439.81	-294.91	735.47	387.57	-278.42	1054.91	386.14	-257.73	1089.79	303.40	-257.11	1016.39	-34.57	140.67	57.71
2.74000	678.55	-285.59	440.82	664.53	-275.97	501.55	651.44	-263.87	536.65	445.71	-293.44	722.18	436.03	-294.73	734.67	386.78	-278.28	1054.63	385.62	-257.64	1089.52	302.61	-256.77	1016.48	-34.96	140.80	57.41
2.74500	672.36	-285.60	437.47	657.40	-275.94	497.88	645.32	-263.96	533.38	441.77	-293.26	721.26	432.18	-294.56	733.86	386.03	-278.14	1054.34	385.09	-257.55	1089.24	301.82	-256.43	1016.55	-33.38	140.90	57.08
2.75000	665.25	-285.59	433.92	650.38	-275.93	494.27	638.26	-264.05	529.97	437.82	-292.73	720.40	428.35	-294.33	733.06	385.26	-277.98	1054.05	384.56	-257.44	1088.96	301.05	-256.14	1016.62	-32.62	141.18	56.74
2.75500	658.15	-285.59	430.42	643.96	-275.72	491.01	632.17	-264.28	527.10	433.86	-292.48	719.50	424.54	-294.14	732.25	384.51	-277.80	1053.73	384.05	-257.33	1088.68	300.21	-255.81	1016.71	-32.68	141.23	56.46
2.76000	651.12	-285.63	427.06	638.29	-275.83	488.07	626.30	-264.49	524.24	429.96	-292.24	718.69	420.73	-293.91	731.48	383.74	-277.68	1053.39	383.57	-257.23	1088.39	299.43	-255.51	1016.81	-33.40	141.28	56.17
2.76500	645.05	-285.17	424.22	632.61	-275.98	485.27	621.53	-264.62	521.66	426.08	-292.00	717.88	416.99	-293.86	730.76	383.04	-277.52	1053.04	383.14	-257.11	1088.08	298.67	-255.13	1016.89	-33.37	141.13	55.89
2.77000	639.09	-284.79	421.41	626.95	-276.14	482.53	615.86	-264.75	518.84	422.23	-291.74	717.09	413.29	-293.61	730.09	382.39	-277.39	1052.69	382.71	-257.01	1087.77	297.94	-254.74	1016.98	-33.09	141.15	55.61
2.77500	632.22	-284.36	418.41	620.69	-276.13	479.67	610.04	-265.02	516.16	418.40	-291.45	716.35	409.72	-293.32	729.50	381.69	-277.24	1052.31	382.28	-256.94	1087.43	297.20	-254.33	1017.06	-33.09	141.21	55.37
2.78000	625.46	-284.43	415.54	614.55	-276.05	476.93	604.26	-265.28	513.59	414.62	-291.26	715.69	406.12	-293.07	728.93	380.99	-277.04	1051.97	381.81	-256.82	1087.10	296.50	-253.90	1017.16	-33.10	141.27	55.10
2.78500	618.85	-284.08	412.78	608.50	-276.01	474.35	598.54	-264.87	511.09	410.99	-291.00	715.12	401.92	-292.82	728.11	380.31	-276.91	1051.62	381.36	-256.73	1086.79	295.83	-253.54	1017.15	-33.06	141.23	54.67
2.79000	612.33	-283.73	410.16	602.52	-276.00	471.87	592.85	-264.88	508.57	407.34	-290.81	714.57	398.22	-292.57	727.53	379.66	-276.75	1051.28	380.88	-256.65	1086.48	295.16	-253.21	1017.14	-32.97	141.28	54.31
2.79500	605.86	-283.84	407.61	596.56	-276.16	469.48	587.25	-265.01	506.30	403.74	-290.62	714.03	394.71	-292.34	727.05	378.98	-276.63	1050.93	380.44	-256.57	1086.20	294.39	-252.93	1017.12	-32.91	141.32	54.02
2.80000	599.46	-283.97	405.28	590.65	-276.48	467.19	581.60	-265.15	504.17	400.21	-290.44	713.60	391.85	-292.14	726.93	378.32	-276.52	1050.61	379.93	-256.49	1085.89	293.67	-252.57	1017.16	-32.80	141.50	53.85
2.80500	593.09	-284.13	403.01	584.83	-276.81	465.03	576.16	-265.24	502.23	396.75	-290.32	713.18	388.57	-292.18	726.63	377.59	-276.42	1050.32	379.39	-256.42	1085.61	292.91	-252.11	1017.19	-32.79	141.56	53.59
2.81000	586.83	-284.28	400.94	579.14	-277.11	463.01	570.77	-265.27	500.22	393.35	-290.18	712.85	385.20	-292.03	726.33	376.84	-276.36	1050.02	378.79	-256.33	1085.33	292.21	-251.63	1017.24	-32.78	141.64	53.30
2.81500	580.73	-284.40	398.97	573.58	-277.20	461.09	565.53	-265.31	498.29	389.89	-290.06	712.52	381.97	-292.12	726.05	376.07	-276.24	1049.74	378.23	-256.28	1085.10	291.41	-251.22	1017.31	-32.77	141.70	53.06
2.82000	574.76	-284.53	397.21	567.48	-277.25	459.02	560.39	-265.38	496.46	386.55	-289.98	712.26	378.80	-291.83	725.82	375.31	-276.12	1049.48	377.66	-256.18	1084.87	290.62	-250.89	1017.33	-32.14	141.76	52.81
2.82500	568.94	-284.64	395.54	561.48	-277.32	456.93	555.38	-265.47	494.79	383.31	-289.89	712.02	375.06	-291.73	725.34	374.55	-276.03	1049.28	377.15	-256.11	1084.65	289.77	-250.54	1017.24	-31.45	141.71	52.44
2.83000	563.17	-284.82	393.91	555.62	-277.37	455.01	550.43	-265.50	493.19	380.21	-289.83	711.79	371.87	-291.64	725.11	373.77	-275.96	1049.08	376.61	-256.03	1084.42	289.01	-250.34	1017.14	-30.86	141.76	52.14
2.83500	557.47	-284.92	392.24	551.11	-277.49	453.69	545.53	-265.52	491.63	377.07	-289.75	711.56	368.20	-291.49	724.69	372.98	-275.89	1048.87	376.05	-255.97	1084.21	288.19	-250.04	1017.19	-31.54	141.70	51.82
2.84000	551.85	-285.05	390.63	546.74	-277.62	452.46	540.74	-265.59	490.19	373.92	-289.69	711.31	365.71	-291.39	724.75	372.14	-275.78	1048.67	375.39	-255.92	1083.97	287.42	-249.68	1017.33	-32.31	141.83	51.72
2.84500	546.44	-285.21	389.07	542.42	-277.70	451.26	536.19	-265.72	488.79	370.77	-289.60	711.04	362.85	-291.28	724.66	371.26	-275.69	1048.47	374.76	-255.84	1083.76	286.65	-249.27	1017.45	-32.96	141.85	51.55
2.85000	541.23	-285.36	387.71	537.68	-277.86	449.88	531.67	-265.83	487.49	367.74	-289.48	710.84	360.49	-291.17	724.78	370.41	-275.59	1048.28	374.17	-255.76	1083.54	285.95	-248.88	1017.59	-33.01	141.97	51.46
2.85500	536.18	-285.50	386.35	532.96	-277.84	448.59	527.13	-266.02	486.26	364.71	-289.35	710.71	357.67	-291.03	724.68	369.67	-275.49	1048.10	373.63	-255.71	1083.33	285.24	-248.48	1017.66	-32.93	141.98	51.26
2.86000	531.09	-285.58	385.04	528.37	-277.87	447.38	522.63	-266.21	485.11	361.72	-289.17	710.61	354.75	-290.67	724.55	368.93	-275.38	1047.93	373.08	-255.65	1083.12	284.52	-248.19	1017.76	-33.01	141.98	51.06
2.86500	526.10	-285.65	383.81	523.77	-277.93	446.18	518.28	-266.47	484.04	358.77	-288.99	710.51	351.91	-290.49	724.48	368.20	-275.28	1047.76	372.53	-255.61	1082.93	283.82	-247.98	1017.75	-33.02	141.96	50.81
2.87000	521.16	-285.80	382.70	519.26	-278.18	445.07	514.13	-266.77	483.01	355.84	-288.84	710.41	349.10	-290.10	724.47	367.44	-275.20	1047.62	372.01	-255.58	1082.78	283.12	-247.76	1017.87	-33.10	141.91	50.61
2.87500	516.38	-285.96	381.71	514.82	-278.48	443.99	509.92	-267.08	482.06	352.95	-288.64	710.39	346.38	-289.88	724.48	366.63	-275.18	1047.50	371.48	-255.57	1082.66	282.37	-247.50	1017.92	-33.07	141.91	50.41
2.88000	511.69	-286.16	380.66	510.41	-278.75	443.02	505.75	-267.38	481.12	350.08	-288.49	710.38	343.68	-289.70	724.52	365.82	-275.11	1047.36	370.96	-255.55	1082.55	281.63	-247.28	1018.05	-33.00	141.90	50.24
2.88500	507.14	-286.33	379.72	506.12	-279.04	442.12	501.62	-267.76	480.30	347.34	-288.34	710.42	341.03	-289.52	724.64	365.03	-275.03	1047.24	370.42	-255.52	1082.48	280.96	-246.91	1018.16	-32.90	141.91	50.03
2.89000	502.59	-286.60	378.84	501.90	-279.32	441.34	497.73	-268.09	479.55	344.64	-288.15	710.51	338.38	-289.37	724.79	364.33	-274.95	1047.17	369.85	-255.52	1082.44	280.38	-246.62	1018.39	-32.90	141.86	49.80
2.89500	498.25	-286.86	378.12	497.80	-279.61	440.63	493.87	-268.38	478.92	342.01	-287.96	710.65	335.80	-289.20	724.97	363.67	-274.94	1047.20	369.26	-255.51	1082.44	279.81	-246.41	1018.52	-32.83	141.82	49.51
2.90000	493.93	-287.05	377.50	493.82	-279.90	439.93	490.04	-268.69	478.28	339.42	-287.77	710.83	333.27	-289.04	725.16	362.94	-274.90	1047.21	368.64	-255.50	1082.44	279.16	-246.19	1018.65	-32.83	141.81	49.25
2.90500	489.82	-287.34	376.94	489.88	-280.15	439.32	486.34	-269.02	477.81	336.94	-287.58	711.03	330.81	-288.87	725.39	362.22	-274.85	1047.25	368.04	-255.47	1082.44	278.50	-245.88	1018.72	-32.71	141.78	48.99
2.91000	485.74	-287.59	376.51	486.05	-280.45	438.81	482.75	-269.22	477.30	334.51	-287.44	711.29	328.48	-288.73	725.65	361.44	-274.83	1047.28	367.43	-255.43	1082.47	277.80	-245.63	1018.80	-32.63	141.79	48.76
2.91500	481.88	-287.88	376.10	482.32	-280.71	438.40	479.28	-269.43	476.84	332.16	-287.34	711.54	326.17	-288.60	725.94	360.70	-274.79	1047.37	366.82	-255.74	1082.55	277.16	-245.35	1018.94	-32.48	141.79	48.51
2.92000	478.10	-288.19	375.73	478.74	-280.91	438.02	475.77	-269.61	476.35	329.84	-287.23	711.82	323.95	-288.43	726.28	359.95	-274.74	1047.45	366.17	-255.77	1082.64	276.48	-245.04	1019.10	-32.38	141.82	48.29
2.92500	474.52	-288.48	375.45	475.32	-281.10	437.72	472.45	-269.74	476.03	327.65	-287.11	712.10	321.72	-288.32	726.61	359.23	-274.66	1047.57	365.50	-255.72	1082.74	275.79	-244.70	1019.20	-32.26	141.81	48.02
2.93000	470.95	-288.78	375.23	472.02	-281.25	437.53	469.13	-269.82	475.70	325.50	-287.31	712.43	319.62	-288.24	726.95	358.54	-274.57	1047.70	364.83	-255.67	1082.85	275.15	-244.44	1019.23	-32.23	141.83	47.73
2.93500	467.56	-289.01	375.08	468.76	-281.38	437.35	466.03	-269.88	475.39	323.51	-287.23	712.77	317.60	-288.14	727.28	357.77	-274.53	1047.82	363.49	-255.61	1082.72	274.53	-244.10	1019.29	-32.09	141.88	47.37
2.94000	464.15	-289.25	374.86	465.61	-281.50	437.16	463.11	-269.85	475.11	321.62	-287.13	713.11	315.77	-288.06	727.64	356.99	-274.48	1047.98	362.66	-255.58	1082.77	273.88	-243.84	1019.38	-32.07	141.94	47.14
2.94500	460.93	-289.41	374.69	462.58	-281.57	436.93	460.34	-269.88	474.92	319.79	-287.30	713.43	313.95	-288.03	728.02	356.17	-274.42	1048.14	362.00	-255.54	1082.90	273.15	-243.59	1019.54	-32.04	141.98	46.99
2.95000	457.80	-289.57	374.59	459.69	-281.61	436.72	457.62	-269.89	474.69	317.33	-287.28	713.46	312.17	-288.00	728.38	355.45	-274.34	1048.35	362.00	-255.49	1083.27	272.51	-243.21	1019.72	-32.17	141.86	46.92
2.95500	454.80	-289.74	374.45	456.93	-281.66	436.49	455.01	-269.86	474.42	315.53	-287.24	713.70	310.51	-287.98	728.75	354.66	-274.29	1048.51	361.49	-255.42	1083.49	271.87	-242.84	1019.88	-32.21	141.90	46.77
2.96000	451.89	-289.80	374.31	454.24	-281.67	436.28	452.51	-269.78	474.19	313.87	-287.23	713.96	308.94	-287.97	729.07	353.91	-274.27	1048.69	360.86	-255.39	1083.64	271.27	-242.62	1020.05	-32.21	141.95	46.62
2.96500	449.15	-289.86	374.11	451.69	-281.62	436.08	450.12	-269.79	474.04	312.28	-287.22	714.18	307.51	-287.98	729.37	353.22	-274.21	1048.83	360.26	-255.36	1083.80	270.61	-242.43	1020.19	-32.20	142.00	46.50
2.97000	446.54	-289.93	373.92	449.18	-281.61	435.87	447.64	-269.71	473.84	310.78	-287.18	714.47	306.05	-287.96	729.66	352.61	-274.15	1049.00	359.68	-254.99	1083.97	270.02	-242.27	1020.36	-32.07	142.08	46.35
2.97500	444.09	-289.97	373.75	446.85	-281.61	435.65	445.32	-269.66	473.64	309.45	-287.23	714.75	304.68	-287.99	729.95	352.01	-274.11	1049.17	359.08	-254.90	1084.11	269.48	-242.18	1020.48	-31.95	142.17	46.19
2.98000	441.69	-289.99	373.58	444.58	-281.58	435.42	443.11	-269.63	473.40	308.68	-287.28	715.32	303.29	-288.00	730.20	351.42	-274.10	1049.37	358.49	-254.87	1084.27	268.97	-242.07	1020.66	-31.74	142.36	46.03
2.98500	439.37	-289.98	373.43	442.37	-281.58	435.19	441.03	-269.58	473.23	307.38	-287.00	715.63	301.98	-287.99	730.46	350.82	-274.08	1049.53	357.92	-254.87	1084.42	268.45	-241.88	1020.82	-31.66	142.43	45.89
2.99000	437.09	-289.98	373.25	440.25	-281.57	435.00	438.92	-269.59	472.96	305.98	-287.03	715.88	300.72	-288.00	730.71	350.23	-274.04	1049.66	357.34	-254.86	1084.56	267.95	-241.76	1020.98	-31.62	142.49	45.75
2.99500	435.95	-289.96	373.17	439.20	-281.54	434.92	437.83	-269.58	472.82	305.37	-287.12	716.03	300.12	-288.02	730.86	349.91	-274.01	1049.72	357.06	-254.82	1084.62	267.68	-241.59	1021.02	-31.58	142.55	45.69
3.00000	435.95	-289.96	373.17	439.20	-281.54	434.92	437.83	-269.58	472.82	305.37	-287.12	716.03	300.12	-288.02	730.86	349.91	-274.01	1049.72	357.06	-254.82	1084.62	267.68	-241.59	1021.02	-31.58	142.55	45.69
 