CODA Motion Analysis: throw0010.MDF [throw_1.stp]
Graph data: "export: scapula_humerus  *  Time"
Time	Marker Position																								Vector Angle		
Time	distal_hand.X	distal_hand.Y	distal_hand.Z	proximal_hand.X	proximal_hand.Y	proximal_hand.Z	distal_radius.X	distal_radius.Y	distal_radius.Z	proximal_radius.X	proximal_radius.Y	proximal_radius.Z	distal_humerus.X	distal_humerus.Y	distal_humerus.Z	proxinmal_humerus.X	proxinmal_humerus.Y	proxinmal_humerus.Z	distal_scapula.X	distal_scapula.Y	distal_scapula.Z	proximal_scapula.X	proximal_scapula.Y	proximal_scapula.Z	wrist__forearm	foream_arm	scapula_humerus
(s)	(mm)	(mm)	(mm)	(mm)	(mm)	(mm)	(mm)	(mm)	(mm)	(mm)	(mm)	(mm)	(mm)	(mm)	(mm)	(mm)	(mm)	(mm)	(mm)	(mm)	(mm)	(mm)	(mm)	(mm)	(deg)	(deg)	(deg)
0.00000	498.81	-276.44	383.62	490.05	-267.35	440.65	484.34	-252.47	473.58	312.40	-254.57	690.15	305.72	-257.16	704.11	309.27	-279.24	1032.72	311.25	-260.46	1070.30	227.80	-246.55	1000.72	-29.71	140.94	49.56
0.00500	498.78	-276.43	383.64	490.06	-267.33	440.66	484.30	-252.47	473.64	312.37	-254.62	690.18	305.65	-257.21	704.09	309.27	-279.29	1032.69	311.27	-260.44	1070.30	227.78	-246.58	1000.72	-29.76	140.92	49.56
0.01000	498.70	-276.47	383.69	489.94	-267.33	440.67	484.23	-252.49	473.68	312.32	-254.74	690.15	305.54	-257.28	704.11	309.30	-279.28	1032.66	311.32	-260.44	1070.30	227.74	-246.61	1000.75	-29.71	140.89	49.58
0.01500	498.63	-276.46	383.72	489.85	-267.33	440.64	484.18	-252.49	473.65	312.20	-254.74	690.10	305.42	-257.28	704.02	309.34	-279.26	1032.63	311.31	-260.46	1070.25	227.74	-246.66	1000.76	-29.71	140.85	49.57
0.02000	498.55	-276.49	383.70	489.71	-267.33	440.65	484.13	-252.47	473.62	312.07	-254.78	690.04	305.32	-257.31	703.97	309.37	-279.25	1032.58	311.33	-260.47	1070.21	227.77	-246.68	1000.79	-29.66	140.81	49.58
0.02500	498.44	-276.46	383.64	489.55	-267.35	440.59	483.98	-252.43	473.59	311.89	-254.75	690.04	305.15	-257.34	703.92	309.34	-279.24	1032.55	311.27	-260.48	1070.16	227.79	-246.68	1000.78	-29.62	140.78	49.54
0.03000	498.29	-276.49	383.64	489.45	-267.35	440.60	483.76	-252.41	473.59	311.72	-254.86	690.08	305.02	-257.43	703.95	309.22	-279.24	1032.49	311.28	-260.49	1070.14	227.71	-246.68	1000.80	-29.65	140.80	49.59
0.03500	498.18	-276.53	383.63	489.30	-267.38	440.53	483.60	-252.42	473.53	311.61	-254.86	690.01	304.87	-257.47	703.91	309.07	-279.30	1032.44	311.21	-260.49	1070.08	227.64	-246.64	1000.84	-29.59	140.80	49.63
0.04000	498.03	-276.57	383.68	489.22	-267.36	440.54	483.42	-252.39	473.48	311.46	-254.87	689.99	304.77	-257.59	703.90	308.95	-279.31	1032.37	311.18	-260.49	1070.01	227.57	-246.56	1000.85	-29.65	140.81	49.67
0.04500	497.96	-276.56	383.62	489.08	-267.36	440.56	483.23	-252.37	473.39	311.30	-254.86	689.87	304.60	-257.63	703.86	308.87	-279.31	1032.30	311.12	-260.49	1069.94	227.55	-246.56	1000.80	-29.60	140.80	49.65
0.05000	497.80	-276.61	383.68	488.94	-267.37	440.56	482.98	-252.42	473.33	311.13	-254.98	689.93	304.42	-257.77	703.92	308.74	-279.33	1032.25	311.07	-260.52	1069.88	227.56	-246.52	1000.71	-29.58	140.82	49.61
0.05500	497.67	-276.69	383.70	488.81	-267.39	440.60	482.72	-252.44	473.31	311.01	-255.03	689.90	304.22	-257.83	703.96	308.68	-279.35	1032.20	311.05	-260.52	1069.84	227.54	-246.45	1000.53	-29.55	140.81	49.53
0.06000	497.42	-276.80	383.83	488.59	-267.45	440.56	482.51	-252.46	473.34	310.87	-255.01	689.99	304.07	-257.89	704.08	308.61	-279.31	1032.15	310.96	-260.56	1069.78	227.51	-246.39	1000.29	-29.54	140.82	49.42
0.06500	497.09	-276.91	383.83	488.37	-267.46	440.62	482.20	-252.44	473.32	310.68	-254.92	689.92	303.89	-257.90	704.10	308.59	-279.30	1032.09	310.88	-260.60	1069.73	227.50	-246.30	1000.10	-29.65	140.81	49.31
0.07000	496.77	-277.04	383.91	488.06	-267.49	440.59	482.00	-252.43	473.32	310.46	-254.98	690.04	303.70	-257.96	704.18	308.54	-279.29	1032.07	310.79	-260.61	1069.70	227.57	-246.28	1000.00	-29.63	140.79	49.21
0.07500	496.46	-277.15	383.99	487.83	-267.50	440.67	481.68	-252.42	473.36	310.27	-254.98	690.11	303.48	-258.00	704.16	308.49	-279.28	1032.03	310.70	-260.64	1069.68	227.65	-246.13	999.90	-29.68	140.79	49.09
0.08000	496.18	-277.36	384.17	487.57	-267.55	440.75	481.41	-252.45	473.44	310.07	-255.04	690.21	303.26	-258.08	704.27	308.50	-279.26	1032.02	310.64	-260.65	1069.67	227.62	-246.04	999.77	-29.66	140.76	48.99
0.08500	495.77	-277.51	384.30	487.28	-267.62	440.82	481.00	-252.47	473.40	309.88	-255.05	690.19	303.00	-258.09	704.31	308.47	-279.25	1031.96	310.55	-260.66	1069.66	227.55	-245.88	999.64	-29.74	140.76	48.89
0.09000	495.31	-277.69	384.38	486.81	-267.65	440.82	480.58	-252.48	473.33	309.57	-255.17	690.26	302.70	-258.13	704.41	308.46	-279.16	1031.93	310.45	-260.70	1069.67	227.46	-245.86	999.66	-29.69	140.74	48.84
0.09500	494.77	-277.85	384.40	486.32	-267.74	440.74	480.06	-252.53	473.19	309.33	-255.18	690.33	302.41	-258.06	704.47	308.38	-279.13	1031.87	310.29	-260.74	1069.67	227.38	-245.83	999.57	-29.65	140.78	48.74
0.10000	494.12	-278.11	384.42	485.81	-267.84	440.73	479.52	-252.58	473.13	308.97	-255.29	690.45	302.09	-258.10	704.59	308.21	-279.07	1031.83	310.14	-260.79	1069.64	227.29	-245.65	999.59	-29.73	140.80	48.71
0.10500	493.43	-278.32	384.40	485.29	-267.96	440.71	479.07	-252.63	473.06	308.66	-255.23	690.49	301.76	-258.15	704.67	308.02	-278.96	1031.81	310.05	-260.82	1069.61	227.17	-245.51	999.49	-29.86	140.82	48.67
0.11000	492.68	-278.54	384.37	484.68	-268.09	440.67	478.59	-252.69	473.02	308.28	-255.28	690.63	301.39	-258.23	704.78	307.93	-278.87	1031.78	309.93	-260.83	1069.58	227.05	-245.47	999.56	-29.96	140.81	48.66
0.11500	491.90	-278.75	384.25	484.02	-268.23	440.52	477.98	-252.78	472.93	307.93	-255.34	690.66	301.03	-258.24	704.80	307.83	-278.81	1031.75	309.81	-260.85	1069.54	226.92	-245.34	999.53	-30.02	140.82	48.62
0.12000	491.00	-278.95	384.19	483.37	-268.42	440.42	477.23	-252.95	472.79	307.56	-255.43	690.72	300.63	-258.29	704.90	307.70	-278.75	1031.70	309.64	-260.88	1069.52	226.83	-245.25	999.52	-30.18	140.86	48.56
0.12500	490.02	-279.22	384.06	482.59	-268.59	440.28	476.48	-253.10	472.64	307.12	-255.44	690.72	300.20	-258.36	705.00	307.39	-278.63	1031.61	309.51	-260.91	1069.44	226.80	-245.07	999.42	-30.30	140.91	48.49
0.13000	489.05	-279.48	383.94	481.70	-268.81	440.15	475.75	-253.28	472.49	306.66	-255.51	690.85	299.73	-258.50	705.18	307.17	-278.52	1031.50	309.31	-260.91	1069.36	226.81	-245.00	999.35	-30.30	140.94	48.37
0.13500	488.06	-279.71	383.72	480.70	-269.04	439.96	474.84	-253.45	472.36	306.11	-255.56	690.88	299.19	-258.53	705.27	306.99	-278.36	1031.39	309.15	-260.95	1069.27	226.88	-244.79	999.21	-30.22	140.96	48.21
0.14000	486.95	-280.00	383.51	479.59	-269.24	439.75	473.74	-253.65	472.19	305.56	-255.63	690.99	298.58	-258.64	705.37	306.91	-278.23	1031.31	308.91	-261.01	1069.19	226.91	-244.65	999.08	-30.10	140.99	48.01
0.14500	485.75	-280.29	383.28	478.43	-269.47	439.43	472.54	-253.80	471.88	304.93	-255.66	691.01	297.97	-258.74	705.46	306.69	-278.13	1031.19	308.71	-261.07	1069.11	226.82	-244.39	998.90	-29.99	141.05	47.85
0.15000	484.48	-280.63	383.06	477.11	-269.72	439.12	471.29	-254.00	471.52	304.28	-255.80	691.15	297.33	-258.88	705.67	306.41	-278.04	1031.04	308.41	-261.11	1068.98	226.64	-244.20	998.79	-29.77	141.15	47.76
0.15500	483.13	-280.90	382.74	475.77	-269.94	438.80	470.03	-254.21	471.07	303.52	-255.89	691.21	296.65	-258.99	705.80	305.99	-277.97	1030.87	308.13	-261.14	1068.84	226.35	-244.00	998.63	-29.61	141.25	47.71
0.16000	481.65	-281.23	382.43	474.25	-270.20	438.46	468.55	-254.40	470.69	302.71	-256.04	691.36	295.88	-259.13	705.93	305.59	-277.92	1030.74	307.82	-261.18	1068.70	226.03	-243.76	998.51	-29.41	141.36	47.65
0.16500	480.04	-281.52	382.04	472.72	-270.46	438.07	466.87	-254.60	470.18	301.83	-256.12	691.39	295.03	-259.25	705.98	305.19	-277.83	1030.58	307.53	-261.29	1068.60	225.66	-243.42	998.39	-29.28	141.48	47.59
0.17000	478.30	-281.88	381.71	471.12	-270.74	437.61	465.11	-254.85	469.70	300.90	-256.30	691.51	294.13	-259.43	706.06	304.79	-277.72	1030.46	307.22	-261.36	1068.47	225.29	-243.17	998.38	-29.20	141.61	47.58
0.17500	476.49	-282.23	381.24	469.42	-271.00	437.13	463.33	-255.06	469.13	299.95	-256.48	691.56	293.18	-259.61	706.09	304.36	-277.63	1030.31	306.86	-261.39	1068.30	224.84	-242.81	998.33	-29.08	141.73	47.56
0.18000	474.48	-282.57	380.78	467.56	-271.34	436.61	461.54	-255.33	468.58	298.90	-256.68	691.58	292.18	-259.77	706.18	303.79	-277.60	1030.18	306.46	-261.39	1068.09	224.38	-242.46	998.30	-29.03	141.84	47.57
0.18500	472.42	-282.93	380.16	465.59	-271.64	436.09	459.64	-255.67	467.97	297.80	-256.83	691.52	291.11	-259.82	706.20	303.19	-277.52	1030.01	306.05	-261.47	1067.87	223.97	-242.10	998.17	-28.94	141.96	47.53
0.19000	470.15	-283.34	379.62	463.48	-271.95	435.51	457.66	-255.97	467.39	296.57	-257.05	691.49	289.95	-259.97	706.23	302.56	-277.48	1029.80	305.71	-261.51	1067.65	223.62	-241.85	998.15	-28.90	142.06	47.51
0.19500	467.79	-283.74	378.97	461.26	-272.32	434.86	455.52	-256.27	466.75	295.29	-257.12	691.48	288.72	-260.09	706.14	301.98	-277.43	1029.60	305.36	-261.53	1067.42	223.28	-241.55	998.03	-28.83	142.16	47.44
0.20000	465.20	-284.17	378.33	458.80	-272.71	434.13	453.18	-256.66	466.00	293.90	-257.37	691.43	287.41	-260.19	706.08	301.47	-277.36	1029.37	304.97	-261.53	1067.15	222.90	-241.27	997.93	-28.70	142.27	47.36
0.20500	462.43	-284.61	377.52	456.28	-273.12	433.34	450.70	-256.99	465.25	292.39	-257.55	691.30	286.00	-260.28	705.97	301.01	-277.29	1029.13	304.60	-261.55	1066.88	222.54	-240.94	997.76	-28.72	142.34	47.23
0.21000	459.51	-285.12	376.72	453.60	-273.60	432.56	448.14	-257.44	464.39	290.83	-257.67	691.22	284.52	-260.40	705.90	300.53	-277.25	1028.88	304.24	-261.59	1066.62	222.17	-240.70	997.67	-28.70	142.42	47.13
0.21500	456.42	-285.59	375.88	450.78	-274.05	431.70	445.37	-257.86	463.49	289.23	-257.81	691.04	282.92	-260.47	705.84	300.05	-277.18	1028.65	303.98	-261.63	1066.38	221.80	-240.34	997.54	-28.69	142.50	47.01
0.22000	453.11	-286.16	375.00	447.79	-274.52	430.83	442.37	-258.38	462.51	287.58	-258.04	691.02	281.28	-260.59	705.82	299.51	-277.17	1028.45	303.64	-261.64	1066.12	221.44	-240.13	997.45	-28.67	142.65	46.89
0.22500	449.59	-286.68	374.08	444.59	-275.02	429.89	439.19	-258.83	461.57	285.75	-258.20	690.94	279.55	-260.68	705.73	298.97	-277.14	1028.21	303.27	-261.66	1065.85	221.05	-239.93	997.38	-28.66	142.78	46.77
0.23000	445.87	-287.27	373.12	441.17	-275.56	428.99	435.88	-259.35	460.72	283.88	-258.31	691.01	277.75	-260.79	705.71	298.57	-277.09	1028.00	302.89	-261.70	1065.58	220.57	-239.79	997.36	-28.61	142.88	46.66
0.23500	442.00	-287.86	372.12	437.51	-276.12	428.00	432.39	-259.92	459.74	281.88	-258.50	690.96	275.86	-260.96	705.73	298.13	-277.05	1027.75	302.53	-261.75	1065.35	220.06	-239.62	997.27	-28.48	142.98	46.50
0.24000	437.89	-288.55	371.11	433.70	-276.69	426.99	428.82	-260.47	458.86	279.88	-258.76	691.03	273.87	-261.20	705.86	297.77	-277.04	1027.52	302.18	-261.77	1065.14	219.59	-239.43	997.28	-28.39	143.07	46.34
0.24500	433.51	-289.24	370.03	429.68	-277.26	425.92	425.07	-261.08	457.82	277.80	-259.00	691.08	271.87	-261.42	705.93	297.21	-277.04	1027.33	301.80	-262.14	1064.93	219.17	-239.27	997.30	-28.35	143.22	46.19
0.25000	428.88	-289.93	368.99	425.53	-277.89	424.90	421.19	-261.70	456.89	275.64	-259.38	691.16	269.82	-261.67	706.11	296.75	-277.01	1027.17	301.50	-262.27	1064.70	218.72	-239.19	997.35	-28.42	143.35	46.07
0.25500	424.01	-290.62	367.89	421.09	-278.54	423.85	417.03	-262.30	455.86	273.34	-259.64	691.23	267.70	-261.96	706.27	296.26	-276.99	1027.01	301.18	-262.61	1064.48	218.22	-239.07	997.33	-28.42	143.51	45.93
0.26000	419.00	-291.35	366.92	416.54	-279.22	422.78	412.71	-262.98	454.91	270.96	-259.94	691.43	265.49	-262.39	706.52	295.78	-276.92	1026.85	300.85	-262.73	1064.27	217.71	-238.90	997.36	-28.41	143.66	45.77
0.26500	413.86	-292.07	365.93	411.70	-279.89	421.72	408.22	-263.66	453.92	268.49	-260.29	691.67	263.20	-262.86	706.73	295.24	-276.84	1026.70	299.85	-262.76	1063.85	217.17	-238.74	997.47	-28.23	143.84	45.52
0.27000	408.45	-292.85	364.98	406.76	-280.58	420.70	403.45	-264.40	452.88	266.01	-260.69	691.90	260.84	-263.30	706.98	294.71	-276.79	1026.55	299.35	-262.81	1063.62	216.60	-238.73	997.65	-28.17	144.05	45.39
0.27500	402.81	-293.63	363.92	401.72	-281.31	419.75	398.57	-265.07	451.85	263.44	-261.02	692.11	258.39	-263.73	707.26	294.27	-276.75	1026.43	298.38	-262.86	1063.19	216.04	-238.59	997.78	-28.23	144.23	45.13
0.28000	397.02	-294.47	362.95	396.49	-282.03	418.83	393.59	-265.86	450.90	260.83	-261.44	692.40	255.89	-264.22	707.65	293.84	-276.73	1026.29	298.49	-263.15	1063.18	215.49	-238.39	997.89	-28.26	144.41	45.02
0.28500	391.12	-295.31	361.95	391.09	-282.79	417.88	388.65	-266.59	450.09	258.11	-261.91	692.68	253.34	-264.72	708.09	293.23	-276.69	1026.20	298.27	-263.27	1063.09	215.02	-238.21	997.96	-28.25	144.57	44.82
0.29000	385.08	-296.24	361.06	385.54	-283.56	416.92	383.54	-267.34	449.27	255.29	-262.41	693.05	250.71	-265.15	708.51	292.65	-276.68	1026.09	298.47	-263.62	1063.22	214.47	-238.03	998.11	-28.22	144.73	44.70
0.29500	378.79	-297.10	360.14	379.85	-284.39	415.99	378.19	-268.13	448.42	252.38	-262.81	693.37	248.00	-265.61	708.93	292.07	-276.70	1026.03	298.22	-264.07	1063.16	213.95	-237.86	998.29	-28.27	144.90	44.50
0.30000	372.29	-298.02	359.32	373.93	-285.23	415.05	372.63	-268.96	447.60	249.39	-263.31	693.79	245.15	-266.12	709.37	291.64	-276.70	1025.98	297.25	-263.89	1062.76	213.40	-237.66	998.48	-28.28	145.05	44.17
0.30500	365.64	-298.97	358.52	367.92	-286.08	414.25	366.95	-269.82	446.82	246.30	-263.72	694.17	242.17	-266.62	709.85	291.11	-276.68	1025.95	296.75	-264.18	1062.57	212.85	-237.40	998.63	-28.34	145.20	43.89
0.31000	358.88	-299.99	357.87	361.68	-286.96	413.45	361.06	-270.70	446.07	243.14	-264.18	694.72	239.12	-267.12	710.33	290.58	-276.70	1025.95	295.79	-264.04	1062.19	212.29	-237.17	998.83	-28.26	145.37	43.55
0.31500	351.95	-301.02	357.21	355.40	-287.87	412.79	355.02	-271.66	445.35	239.86	-264.63	695.23	236.03	-267.54	710.87	289.93	-276.77	1025.97	295.23	-264.05	1062.04	211.67	-237.05	999.05	-28.30	145.55	43.28
0.32000	344.90	-302.11	356.64	348.76	-288.83	412.08	348.79	-272.62	444.73	236.49	-265.18	695.91	232.89	-267.97	711.50	289.28	-276.83	1026.00	294.82	-264.13	1061.96	211.10	-236.97	999.28	-28.08	145.75	43.01
0.32500	337.70	-303.21	356.11	342.10	-289.85	411.47	342.52	-273.64	444.16	232.97	-265.71	696.52	229.60	-268.43	712.24	288.57	-276.84	1026.01	294.41	-264.21	1061.91	210.45	-236.78	999.48	-28.01	145.89	42.72
0.33000	330.32	-304.32	355.69	335.24	-290.84	410.95	335.99	-274.69	443.63	229.37	-266.27	697.21	226.17	-268.93	712.99	287.89	-276.91	1026.04	294.64	-264.29	1062.10	209.82	-236.67	999.74	-27.89	146.05	42.52
0.33500	322.71	-305.45	355.37	328.28	-291.87	410.54	329.48	-275.68	443.24	225.73	-266.76	697.87	222.68	-269.37	713.75	287.24	-276.95	1026.10	294.36	-264.18	1062.13	209.13	-236.48	1000.04	-27.93	146.15	42.25
0.34000	314.88	-306.62	355.12	321.16	-292.91	410.27	322.78	-276.68	442.98	222.01	-267.30	698.73	219.17	-269.83	714.58	286.60	-277.04	1026.20	294.50	-264.55	1062.35	208.48	-236.31	1000.44	-28.01	146.28	42.04
0.34500	307.06	-307.80	354.97	313.87	-293.95	410.04	316.07	-277.74	442.82	218.24	-267.77	699.68	215.60	-270.34	715.48	285.95	-277.10	1026.29	294.13	-264.43	1062.41	207.82	-236.12	1000.85	-27.91	146.40	41.75
0.35000	299.05	-309.03	354.88	306.58	-295.03	409.89	309.04	-278.77	442.71	214.38	-268.37	700.68	211.95	-270.83	716.49	285.25	-277.15	1026.41	293.73	-264.48	1062.42	207.18	-235.92	1001.37	-27.94	146.54	41.49
0.35500	291.05	-310.21	354.93	299.13	-296.13	409.79	301.96	-279.81	442.65	210.51	-268.87	701.64	208.24	-271.29	717.49	284.51	-277.23	1026.51	293.33	-264.91	1062.45	206.45	-235.69	1001.82	-27.83	146.69	41.23
0.36000	282.75	-311.40	355.13	291.61	-297.25	409.82	294.73	-280.87	442.57	206.58	-269.45	702.70	204.50	-271.77	718.56	283.85	-277.35	1026.66	292.32	-265.09	1062.24	205.69	-235.44	1002.34	-27.92	146.84	40.89
0.36500	274.43	-312.59	355.55	283.87	-298.35	409.95	287.40	-281.91	442.63	202.62	-270.00	703.82	200.72	-272.26	719.70	283.09	-277.43	1026.80	291.71	-265.52	1062.21	204.92	-235.21	1002.77	-27.83	147.00	40.58
0.37000	265.92	-313.76	356.08	276.14	-299.43	410.28	279.85	-282.89	442.80	198.61	-270.49	705.11	196.89	-272.76	720.96	282.42	-277.49	1027.00	290.63	-266.05	1061.98	204.18	-235.02	1003.29	-27.89	147.18	40.21
0.37500	257.35	-314.93	356.71	268.30	-300.47	410.71	272.31	-283.79	443.15	194.59	-270.97	706.41	193.04	-273.20	722.27	281.60	-277.59	1027.22	290.00	-266.59	1061.99	203.44	-234.78	1003.76	-27.91	147.36	39.88
0.38000	248.63	-316.12	357.41	260.45	-301.51	411.37	264.47	-284.79	443.56	190.53	-271.47	707.80	189.14	-273.67	723.65	280.84	-277.68	1027.49	288.93	-267.08	1061.85	202.69	-234.52	1004.25	-27.99	147.57	39.47
0.38500	239.71	-317.34	358.25	252.39	-302.54	412.07	256.69	-285.70	444.11	186.42	-271.93	709.18	185.22	-274.11	725.11	280.08	-277.74	1027.80	288.32	-267.62	1061.92	201.95	-234.19	1004.75	-28.11	147.75	39.10
0.39000	230.75	-318.54	359.26	244.31	-303.57	412.93	248.74	-286.68	444.83	182.21	-272.45	710.66	181.26	-274.56	726.68	279.32	-277.83	1028.14	287.89	-268.08	1062.07	201.20	-233.92	1005.41	-28.23	147.93	38.82
0.39500	221.68	-319.70	360.45	236.02	-304.56	413.80	240.91	-287.68	445.63	178.01	-272.93	712.27	177.26	-275.00	728.29	278.60	-277.91	1028.51	287.45	-268.29	1062.26	200.54	-233.75	1006.16	-28.32	148.07	38.51
0.40000	212.60	-320.78	361.78	227.67	-305.58	414.87	233.08	-288.60	446.70	173.78	-273.44	714.02	173.24	-275.41	730.01	277.85	-277.94	1028.87	287.04	-268.71	1062.46	199.79	-233.59	1006.91	-28.34	148.20	38.22
0.40500	203.49	-321.87	363.32	219.20	-306.53	416.02	225.21	-289.57	447.78	169.58	-273.86	715.82	169.22	-275.80	731.78	277.21	-278.01	1029.29	286.64	-268.92	1062.70	199.15	-233.51	1007.58	-28.32	148.32	37.84
0.41000	194.36	-322.98	364.94	210.68	-307.47	417.35	217.36	-290.50	449.09	165.35	-274.25	717.68	165.19	-276.16	733.64	276.56	-278.11	1029.69	286.24	-269.05	1062.93	198.44	-233.44	1008.31	-28.25	148.43	37.50
0.41500	185.24	-324.03	366.74	202.26	-308.36	418.76	209.46	-291.38	450.41	161.17	-274.69	719.61	161.15	-276.56	735.54	275.93	-278.15	1030.15	285.86	-269.16	1063.18	197.83	-233.42	1009.15	-28.29	148.54	37.17
0.42000	175.80	-325.01	368.55	193.78	-309.18	420.39	201.41	-292.34	451.89	156.94	-275.13	721.65	157.14	-276.91	737.52	275.18	-278.25	1030.56	285.50	-269.27	1063.39	197.23	-233.35	1010.00	-28.49	148.70	36.90
0.42500	166.36	-326.00	370.53	185.34	-310.01	422.09	193.43	-293.29	453.48	152.76	-275.56	723.71	153.13	-277.27	739.56	274.46	-278.36	1031.04	285.17	-269.36	1063.63	196.64	-233.18	1010.84	-28.77	148.84	36.59
0.43000	156.83	-326.93	372.64	176.68	-310.80	423.93	185.28	-294.24	455.15	148.51	-275.97	725.79	149.12	-277.61	741.67	273.72	-278.41	1031.54	284.81	-269.42	1063.90	196.03	-233.14	1011.67	-28.90	149.00	36.27
0.43500	147.53	-327.86	374.91	167.96	-311.55	425.84	177.15	-295.05	456.95	144.31	-276.30	727.96	145.10	-277.95	743.85	273.20	-278.51	1032.05	284.46	-269.59	1064.17	195.38	-233.08	1012.49	-28.77	149.13	35.92
0.44000	138.10	-328.73	377.21	159.18	-312.32	427.82	168.97	-295.94	458.82	140.11	-276.65	730.21	141.15	-278.25	746.11	272.59	-278.61	1032.54	284.12	-269.65	1064.43	194.72	-233.02	1013.38	-28.68	149.28	35.62
0.44500	128.77	-329.53	379.69	150.43	-313.04	429.90	160.77	-296.75	460.94	135.91	-276.95	732.50	137.20	-278.55	748.43	272.04	-278.73	1033.05	283.84	-269.73	1064.71	194.19	-232.99	1014.30	-28.56	149.42	35.30
0.45000	119.36	-330.31	382.30	141.72	-313.74	432.10	152.80	-297.59	463.22	131.81	-277.25	734.87	133.29	-278.85	750.80	271.44	-278.81	1033.56	283.55	-269.77	1065.01	193.66	-232.85	1015.33	-28.60	149.54	35.03
0.45500	110.10	-331.04	385.17	133.04	-314.37	434.48	144.80	-298.37	465.57	127.65	-277.52	737.25	129.43	-279.17	753.22	270.86	-278.96	1034.06	283.27	-269.92	1065.33	193.06	-232.69	1016.22	-28.56	149.66	34.71
0.46000	100.67	-331.75	388.08	124.47	-314.97	437.00	136.83	-299.07	467.97	123.57	-277.69	739.79	125.59	-279.41	755.68	270.32	-279.07	1034.57	282.99	-270.00	1065.61	192.43	-232.51	1017.09	-28.73	149.78	34.39
0.46500	91.24	-332.39	391.10	115.95	-315.54	439.65	128.82	-299.80	470.46	119.48	-277.88	742.27	121.76	-279.65	758.12	269.79	-279.43	1035.11	282.70	-270.10	1065.89	191.84	-232.30	1017.93	-28.95	149.91	34.05
0.47000	81.84	-333.04	394.21	107.35	-316.10	442.41	120.71	-300.56	473.11	115.48	-277.99	744.90	117.94	-279.80	760.63	269.26	-279.62	1035.65	282.44	-270.24	1066.15	191.37	-232.05	1018.88	-28.99	150.08	33.75
0.47500	72.45	-333.68	397.42	98.74	-316.64	445.22	112.63	-301.18	475.73	111.50	-278.14	747.50	114.19	-279.99	763.25	268.76	-279.66	1036.19	282.20	-270.39	1066.45	190.84	-231.94	1019.79	-29.05	150.24	33.42
0.48000	63.17	-334.19	400.83	90.18	-317.13	448.14	104.54	-301.72	478.48	107.55	-278.21	750.13	110.50	-280.08	765.88	268.31	-279.72	1036.74	282.00	-270.54	1066.76	190.34	-231.75	1020.72	-29.09	150.41	33.10
0.48500	53.81	-334.67	404.31	81.78	-317.65	451.16	96.54	-302.25	481.32	103.64	-278.27	752.73	106.85	-280.13	768.51	267.11	-279.84	1036.90	281.81	-270.71	1067.08	189.80	-231.43	1021.67	-29.34	150.66	32.89
0.49000	44.57	-335.08	407.94	73.43	-318.11	454.33	88.61	-302.73	484.33	99.79	-278.35	755.43	103.25	-280.09	771.13	266.44	-279.94	1037.36	281.62	-270.79	1067.38	189.28	-231.24	1022.61	-29.52	150.86	32.63
0.49500	35.23	-335.42	411.62	65.03	-318.51	457.55	80.68	-303.21	487.36	96.04	-278.44	758.21	99.69	-280.06	773.86	265.89	-280.08	1037.86	281.46	-270.95	1067.69	188.78	-231.14	1023.62	-29.73	151.05	32.37
0.50000	25.93	-335.79	415.36	56.72	-318.91	460.95	72.80	-303.64	490.37	92.30	-278.44	760.98	96.18	-280.02	776.58	266.12	-280.12	1038.77	281.31	-271.09	1068.02	188.28	-230.98	1024.55	-29.92	151.17	32.01
0.50500	16.74	-336.06	419.21	48.54	-319.32	464.46	65.12	-303.95	493.48	88.71	-278.43	763.83	92.74	-279.94	779.31	265.86	-280.22	1039.37	281.19	-271.26	1068.32	187.91	-230.94	1025.51	-30.11	151.33	31.70
0.51000	7.80	-336.34	423.19	40.58	-319.65	468.08	57.57	-304.37	496.76	85.16	-278.35	766.70	89.39	-279.79	782.00	265.48	-280.30	1039.93	281.07	-271.35	1068.59	187.54	-230.85	1026.51	-30.30	151.51	31.45
0.51500	-0.93	-336.52	427.34	32.54	-319.96	471.70	50.27	-304.73	500.19	81.77	-278.34	769.66	86.11	-279.63	784.77	265.22	-280.39	1040.48	280.98	-271.54	1068.82	187.23	-230.75	1027.57	-30.37	151.66	31.24
0.52000	-9.57	-336.71	431.62	24.64	-320.23	475.41	42.82	-305.00	503.60	78.37	-278.26	772.50	82.94	-279.49	787.58	264.88	-280.22	1040.98	280.91	-271.72	1069.06	186.85	-230.63	1028.66	-30.47	151.86	31.08
0.52500	-18.10	-336.80	435.93	16.79	-320.46	479.23	35.46	-305.20	507.02	75.07	-278.23	775.35	79.87	-279.34	790.39	264.56	-280.29	1041.49	280.85	-271.89	1069.32	186.43	-230.53	1029.71	-30.46	152.06	30.91
0.53000	-26.66	-336.89	440.34	9.14	-320.69	483.12	28.12	-305.40	510.51	71.85	-278.09	778.14	76.90	-279.06	793.18	264.24	-280.43	1041.96	280.81	-272.02	1069.58	186.07	-230.39	1030.68	-30.64	152.30	30.69
0.53500	-35.00	-336.94	444.79	1.61	-320.90	487.00	21.02	-305.66	514.15	68.75	-277.97	780.99	73.97	-278.82	795.89	264.02	-280.53	1042.48	280.78	-272.12	1069.86	185.78	-230.42	1031.60	-30.79	152.52	30.44
0.54000	-43.20	-336.99	449.36	-5.82	-321.00	490.89	14.04	-305.76	517.80	65.77	-277.73	783.75	71.15	-278.58	798.61	263.85	-280.63	1042.98	280.78	-272.24	1070.13	185.52	-230.36	1032.43	-30.98	152.75	30.15
0.54500	-51.19	-337.02	453.93	-13.02	-321.10	494.85	7.16	-305.90	521.40	62.88	-277.51	786.57	68.41	-278.34	801.35	263.66	-280.76	1043.49	280.81	-272.41	1070.37	185.24	-230.30	1033.28	-31.14	152.99	29.91
0.55000	-59.09	-337.03	458.58	-20.09	-321.17	498.86	0.23	-305.91	524.94	60.07	-277.17	789.33	65.76	-278.07	804.06	263.41	-280.90	1043.96	280.86	-272.50	1070.55	185.04	-230.23	1034.21	-31.33	153.27	29.74
0.55500	-66.93	-336.94	463.14	-27.04	-321.20	502.93	-6.27	-305.99	528.67	57.35	-276.90	792.08	63.17	-277.79	806.73	263.12	-281.09	1044.37	280.91	-272.66	1070.71	184.88	-230.21	1035.08	-31.50	153.50	29.57
0.56000	-74.50	-336.90	467.85	-33.92	-321.14	506.99	-12.76	-306.03	532.33	54.67	-276.48	794.66	60.72	-277.51	809.28	262.91	-281.19	1044.78	280.99	-272.81	1070.88	184.79	-230.07	1035.99	-31.62	153.77	29.42
0.56500	-81.87	-336.78	472.51	-40.69	-321.09	511.02	-18.89	-306.02	536.02	52.15	-276.25	797.29	58.38	-277.22	811.81	262.85	-281.34	1045.19	281.08	-273.01	1071.08	184.67	-230.02	1036.77	-31.71	153.99	29.18
0.57000	-88.98	-336.62	477.26	-47.24	-320.99	515.01	-25.01	-305.95	539.63	49.73	-275.94	799.88	56.14	-276.94	814.27	262.83	-281.49	1045.63	281.18	-273.13	1071.22	184.59	-229.98	1037.56	-31.85	154.25	29.01
0.57500	-96.00	-336.42	481.88	-53.61	-320.92	519.05	-30.83	-305.94	543.35	47.50	-275.66	802.47	53.98	-276.57	816.75	262.82	-281.62	1046.00	281.30	-273.27	1071.37	184.58	-229.95	1038.28	-31.93	154.49	28.78
0.58000	-102.80	-336.20	486.55	-59.87	-320.84	523.05	-36.66	-305.91	546.96	45.31	-275.28	804.84	51.95	-276.22	819.16	262.75	-281.74	1046.33	281.45	-273.43	1071.48	184.65	-229.97	1038.95	-32.00	154.77	28.57
0.58500	-109.51	-335.94	491.11	-65.99	-320.73	527.01	-42.16	-305.82	550.62	43.33	-274.90	807.32	50.02	-275.94	821.52	262.81	-281.90	1046.61	281.65	-273.61	1071.64	184.59	-229.91	1039.76	-32.06	155.03	28.43
0.59000	-116.05	-335.69	495.67	-71.92	-320.57	530.89	-47.68	-305.65	554.18	41.39	-274.51	809.69	48.21	-275.58	823.78	262.88	-282.07	1046.91	281.86	-273.77	1071.76	184.46	-229.78	1040.42	-32.19	155.32	28.27
0.59500	-122.43	-335.37	500.08	-77.63	-320.41	534.81	-52.67	-305.68	557.82	39.58	-274.20	812.09	46.48	-275.21	825.98	262.93	-282.21	1047.20	282.07	-273.95	1071.86	184.31	-229.62	1040.97	-32.27	155.56	28.09
0.60000	-128.55	-335.00	504.52	-83.05	-320.22	538.70	-57.88	-305.64	561.32	37.81	-273.76	814.29	44.91	-274.83	828.10	262.97	-282.37	1047.50	282.30	-274.07	1071.92	184.20	-229.46	1041.43	-32.37	155.90	27.91
0.60500	-134.45	-334.61	508.93	-88.38	-320.09	542.58	-62.78	-305.60	564.75	36.16	-273.44	816.46	43.44	-274.48	830.17	263.04	-282.46	1047.74	282.57	-274.33	1071.97	184.18	-229.34	1041.86	-32.40	156.19	27.72
0.61000	-140.15	-334.15	513.27	-93.51	-319.87	546.36	-67.65	-305.47	568.11	34.58	-273.03	818.55	42.06	-274.10	832.17	263.23	-282.57	1047.96	282.87	-274.54	1071.98	184.30	-229.28	1042.27	-32.43	156.50	27.52
0.61500	-145.64	-333.64	517.56	-98.55	-319.75	550.08	-72.22	-305.47	571.57	33.14	-272.72	820.56	40.75	-273.77	834.09	263.37	-282.76	1048.15	283.20	-274.75	1071.98	184.61	-229.34	1042.71	-32.43	156.81	27.34
0.62000	-150.92	-333.17	521.77	-103.37	-319.56	553.67	-76.55	-305.46	574.99	31.76	-272.21	822.48	39.47	-273.38	835.91	263.55	-282.90	1048.33	283.54	-274.92	1071.92	185.18	-229.53	1043.21	-32.51	157.11	27.20
0.62500	-155.99	-332.70	525.94	-107.92	-319.39	557.25	-80.71	-305.51	578.36	30.60	-271.79	824.39	38.33	-273.00	837.71	263.80	-283.03	1048.47	283.91	-275.14	1071.90	186.06	-229.90	1043.81	-32.58	157.41	27.05
0.63000	-160.99	-332.21	529.88	-112.34	-319.20	560.74	-84.60	-305.43	581.46	29.48	-271.33	826.20	37.29	-272.60	839.46	264.05	-283.19	1048.55	284.31	-275.31	1071.85	186.58	-230.13	1044.14	-32.62	157.67	26.85
0.63500	-165.70	-331.65	533.79	-116.29	-318.98	564.26	-88.19	-305.41	584.63	28.52	-270.92	827.94	36.41	-272.23	841.19	264.41	-283.35	1048.61	284.74	-275.50	1071.80	186.97	-230.24	1044.64	-32.71	157.92	26.77
0.64000	-170.21	-331.10	537.58	-120.28	-318.76	567.52	-91.57	-305.42	587.73	27.55	-270.42	829.50	35.57	-271.78	842.75	264.75	-283.49	1048.64	285.21	-275.73	1071.68	187.36	-230.37	1045.09	-32.82	158.17	26.74
0.64500	-174.33	-330.58	541.44	-124.01	-318.60	570.75	-94.80	-305.50	590.82	26.74	-270.02	831.02	34.78	-271.41	844.17	265.22	-283.66	1048.66	285.71	-275.96	1071.56	187.76	-230.51	1045.50	-32.94	158.43	26.69
0.65000	-178.18	-330.06	545.08	-127.58	-318.41	573.84	-98.14	-305.44	593.58	26.03	-269.58	832.38	34.05	-271.00	845.44	265.61	-283.83	1048.66	286.24	-276.21	1071.42	188.17	-230.67	1045.86	-32.92	158.74	26.66
0.65500	-182.06	-329.55	548.50	-130.77	-318.25	576.88	-101.23	-305.43	596.18	25.46	-269.23	833.68	33.43	-270.61	846.71	266.05	-284.03	1048.62	286.79	-276.14	1071.27	188.59	-230.85	1046.18	-32.97	159.03	26.63
0.66000	-185.54	-329.06	551.76	-133.73	-318.07	579.78	-104.12	-305.40	598.58	24.89	-268.74	834.80	32.89	-270.13	847.84	266.39	-284.27	1048.52	287.35	-276.31	1071.04	189.02	-231.05	1046.45	-32.95	159.32	26.64
0.66500	-188.92	-328.67	554.92	-136.49	-317.95	582.56	-106.50	-305.54	601.05	24.43	-268.37	835.85	32.50	-269.76	848.87	266.84	-284.53	1048.37	287.94	-276.62	1070.78	189.48	-231.27	1046.67	-33.06	159.55	26.65
0.67000	-191.77	-328.29	557.99	-139.10	-317.77	585.19	-108.85	-305.48	603.26	24.08	-267.93	836.79	32.17	-269.33	849.67	267.36	-284.75	1048.23	288.61	-276.91	1070.53	189.95	-231.50	1046.85	-33.04	159.82	26.67
0.67500	-194.52	-327.89	560.81	-141.37	-317.63	587.68	-110.82	-305.42	605.34	23.86	-267.61	837.65	31.93	-268.95	850.40	268.04	-285.01	1048.09	290.11	-277.19	1070.57	190.44	-231.76	1046.97	-33.08	160.04	26.62
0.68000	-196.91	-327.51	563.38	-143.58	-317.54	589.92	-112.72	-305.28	607.13	23.69	-267.22	838.29	31.71	-268.62	850.94	268.61	-285.28	1047.90	291.09	-277.48	1070.37	190.96	-232.04	1047.04	-33.00	160.28	26.63
0.68500	-199.06	-327.19	565.77	-145.39	-317.41	592.04	-114.32	-305.17	608.95	23.62	-266.92	838.82	31.66	-268.29	851.49	269.31	-285.57	1047.68	291.89	-277.85	1070.06	191.50	-232.34	1047.06	-32.95	160.51	26.64
0.69000	-200.91	-326.87	567.94	-147.04	-317.30	593.93	-116.01	-305.05	610.38	23.60	-266.51	839.17	31.74	-267.94	851.86	269.94	-285.86	1047.42	291.98	-278.16	1069.40	192.07	-232.66	1047.03	-32.86	160.78	26.76
0.69500	-202.65	-326.58	569.91	-148.44	-317.19	595.59	-117.31	-305.05	611.69	23.78	-266.25	839.53	31.90	-267.66	852.16	270.73	-286.16	1047.15	292.65	-278.48	1068.91	192.67	-233.01	1046.95	-32.88	161.00	26.84
0.70000	-204.04	-326.29	571.63	-149.64	-317.10	597.06	-118.49	-304.90	612.65	23.95	-265.96	839.68	32.12	-267.39	852.26	271.45	-286.49	1046.83	293.52	-278.82	1068.47	193.31	-233.38	1046.81	-32.85	161.22	26.92
0.70500	-205.27	-326.04	573.16	-150.67	-316.96	598.29	-119.40	-304.84	613.52	24.28	-265.74	839.80	32.38	-267.19	852.26	272.25	-286.85	1046.45	294.43	-279.14	1068.02	193.98	-233.77	1046.62	-32.86	161.41	26.97
0.71000	-206.26	-325.81	574.34	-151.37	-316.89	599.34	-120.21	-304.77	614.17	24.60	-265.52	839.62	32.75	-267.05	852.11	273.10	-287.19	1046.00	295.36	-279.83	1067.48	194.68	-234.18	1046.37	-32.81	161.61	27.05
0.71500	-207.08	-325.53	575.34	-151.91	-316.82	600.14	-120.78	-304.67	614.72	25.09	-265.41	839.41	33.21	-267.02	851.86	273.91	-287.54	1045.44	296.32	-280.27	1066.88	195.43	-234.63	1046.06	-32.81	161.80	27.15
0.72000	-207.65	-325.31	576.06	-152.05	-316.73	600.82	-120.92	-304.46	615.03	25.67	-265.36	839.00	33.80	-266.86	851.50	274.82	-287.89	1044.80	297.28	-280.54	1066.17	196.22	-235.09	1045.70	-32.80	161.94	27.28
0.72500	-207.88	-325.12	576.65	-152.29	-316.66	601.12	-120.87	-304.35	615.16	26.41	-265.36	838.64	34.51	-266.82	851.07	275.73	-288.33	1044.11	298.28	-280.87	1065.45	197.06	-235.59	1045.28	-32.85	162.05	27.40
0.73000	-207.77	-324.87	576.92	-152.09	-316.59	601.25	-120.74	-304.21	614.99	27.23	-265.29	838.09	35.26	-266.77	850.52	276.84	-288.75	1043.38	299.33	-281.26	1064.67	197.94	-236.11	1044.80	-32.85	162.16	27.51
0.73500	-207.47	-324.72	576.86	-151.78	-316.53	601.05	-120.42	-304.24	614.68	28.15	-265.37	837.50	36.06	-266.77	849.91	277.85	-289.20	1042.55	300.42	-281.64	1063.87	198.87	-236.66	1044.26	-32.82	162.24	27.62
0.74000	-206.83	-324.51	576.50	-150.93	-316.46	600.72	-119.81	-304.16	614.08	29.13	-265.47	836.80	36.90	-266.79	849.12	278.96	-289.68	1041.65	301.52	-281.99	1062.99	199.85	-237.23	1043.66	-32.80	162.27	27.73
0.74500	-205.96	-324.47	575.88	-150.11	-316.41	600.03	-118.79	-304.06	613.28	30.13	-265.66	835.96	37.88	-266.87	848.28	280.06	-290.22	1040.71	302.67	-282.41	1062.08	200.88	-237.84	1043.00	-32.83	162.24	27.85
0.75000	-204.90	-324.39	574.88	-149.01	-316.35	599.07	-117.60	-303.95	612.20	31.18	-265.81	834.90	38.95	-266.93	847.20	281.30	-290.76	1039.76	303.88	-282.82	1061.09	201.97	-238.47	1042.27	-32.86	162.22	28.01
0.75500	-203.47	-324.37	573.66	-147.75	-316.28	597.88	-116.04	-303.96	610.97	32.31	-266.11	833.70	40.10	-267.09	846.10	282.56	-291.30	1038.74	305.11	-283.31	1060.10	203.12	-239.14	1041.49	-32.84	162.13	28.13
0.76000	-201.98	-324.29	572.02	-146.29	-316.28	596.36	-114.45	-303.88	609.31	33.56	-266.33	832.44	41.27	-267.32	844.75	283.78	-291.85	1037.67	306.39	-283.82	1059.03	204.33	-239.83	1040.64	-32.83	162.06	28.28
0.76500	-199.99	-324.27	570.23	-144.62	-316.25	594.55	-112.66	-303.86	607.43	34.91	-266.65	831.07	42.54	-267.54	843.34	285.06	-292.45	1036.54	307.71	-283.98	1057.97	205.61	-240.56	1039.72	-32.87	161.96	28.41
0.77000	-197.96	-324.31	568.00	-142.63	-316.23	592.42	-110.94	-303.91	605.25	36.28	-266.89	829.43	43.88	-267.78	841.71	286.31	-293.07	1035.34	309.11	-284.40	1056.85	206.95	-241.31	1038.74	-32.90	161.91	28.56
0.77500	-195.46	-324.34	565.58	-140.34	-316.24	590.09	-108.58	-303.95	603.11	37.78	-267.16	827.73	45.37	-268.11	840.01	287.81	-293.67	1034.07	310.56	-284.96	1055.76	208.35	-242.10	1037.69	-32.94	161.76	28.65
0.78000	-192.92	-324.35	562.71	-137.78	-316.25	587.46	-106.16	-304.04	600.64	39.37	-267.54	825.85	46.93	-268.39	838.22	289.32	-294.27	1032.81	312.08	-285.51	1054.63	209.83	-242.93	1036.57	-32.96	161.63	28.74
0.78500	-190.03	-324.48	559.60	-135.08	-316.38	584.56	-103.29	-304.16	598.02	41.08	-268.00	823.99	48.63	-268.83	836.31	290.99	-294.92	1031.54	314.45	-286.07	1053.82	211.38	-243.78	1035.39	-33.01	161.43	28.72
0.79000	-186.85	-324.54	556.15	-132.06	-316.44	581.43	-100.32	-304.16	595.04	42.83	-268.29	821.86	50.42	-269.25	834.25	292.56	-295.60	1030.23	316.30	-286.57	1052.69	213.00	-244.67	1034.14	-32.97	161.24	28.80
0.79500	-183.31	-324.68	552.52	-128.94	-316.57	578.12	-97.04	-304.35	591.92	44.66	-268.69	819.74	52.30	-269.76	832.06	294.10	-296.25	1028.84	317.95	-287.09	1051.44	214.70	-245.60	1032.82	-32.90	161.02	28.91
0.80000	-179.59	-324.76	548.57	-125.50	-316.73	574.62	-93.61	-304.50	588.60	46.67	-269.15	817.39	54.22	-270.25	829.79	295.66	-296.86	1027.45	318.86	-287.63	1049.84	216.48	-246.56	1031.42	-32.77	160.82	29.11
0.80500	-175.64	-324.89	544.41	-121.70	-316.90	570.99	-89.83	-304.66	585.25	48.77	-269.66	815.09	56.23	-270.89	827.47	297.33	-297.52	1026.06	320.34	-288.14	1048.48	218.34	-247.55	1029.96	-32.68	160.57	29.18
0.81000	-171.28	-324.99	540.04	-117.52	-317.09	567.07	-86.05	-304.80	581.63	50.96	-270.10	812.50	58.39	-271.44	825.00	299.23	-298.20	1024.66	322.08	-288.61	1047.14	220.29	-248.59	1028.42	-32.62	160.34	29.24
0.81500	-166.63	-325.22	535.46	-113.10	-317.36	562.98	-81.93	-305.04	577.85	53.26	-270.58	809.91	60.66	-271.97	822.40	301.16	-298.83	1023.21	323.82	-289.05	1045.77	222.32	-249.66	1026.81	-32.57	160.08	29.28
0.82000	-161.82	-325.37	530.59	-108.57	-317.59	558.65	-77.76	-305.17	573.67	55.65	-271.07	807.14	63.02	-272.54	819.63	303.03	-299.48	1021.69	325.62	-289.87	1044.41	224.04	-250.61	1025.44	-32.47	159.84	29.52
0.82500	-156.75	-325.53	525.49	-103.68	-317.84	554.17	-72.84	-305.36	569.53	58.21	-271.70	804.37	65.52	-273.13	816.80	304.90	-300.17	1020.10	327.45	-290.07	1043.04	226.11	-251.59	1023.75	-32.45	159.50	29.56
0.83000	-151.27	-325.74	520.20	-98.40	-318.07	549.54	-67.88	-305.56	565.15	60.81	-272.15	801.38	68.14	-273.73	813.83	306.79	-300.84	1018.50	329.31	-290.44	1041.67	228.02	-252.61	1022.37	-32.38	159.20	29.83
0.83500	-145.34	-325.92	514.81	-92.80	-318.37	544.75	-62.59	-305.80	560.72	63.58	-272.63	798.21	70.91	-274.37	810.80	308.78	-301.44	1016.89	331.21	-290.54	1040.23	229.89	-253.62	1020.94	-32.35	158.88	30.13
0.84000	-139.13	-326.12	509.14	-87.01	-318.52	539.76	-57.36	-305.97	556.00	66.47	-273.11	794.96	73.75	-274.96	807.60	310.76	-302.09	1015.27	333.15	-290.89	1038.82	231.67	-254.63	1019.53	-32.17	158.62	30.46
0.84500	-132.64	-326.36	503.24	-80.92	-318.76	534.58	-51.51	-306.25	551.18	69.56	-273.78	791.66	76.76	-275.53	804.32	312.81	-302.71	1013.63	335.94	-291.35	1037.74	233.52	-255.68	1017.99	-32.06	158.29	30.65
0.85000	-125.67	-326.51	497.19	-74.58	-319.01	529.10	-45.40	-306.43	546.12	72.74	-274.32	788.21	79.85	-276.18	800.87	314.85	-303.32	1011.94	338.13	-291.80	1036.41	235.45	-256.66	1016.45	-32.00	157.94	30.93
0.85500	-118.38	-326.67	490.93	-67.78	-319.23	523.60	-38.66	-306.78	541.03	76.01	-274.87	784.63	83.06	-276.81	797.40	316.95	-303.90	1010.20	340.95	-292.25	1035.31	237.45	-257.61	1014.77	-31.95	157.51	31.07
0.86000	-110.67	-326.89	484.62	-60.80	-319.43	517.82	-31.82	-307.05	535.72	79.38	-275.41	780.96	86.35	-277.37	793.83	319.20	-304.49	1008.48	342.40	-292.67	1033.62	239.38	-258.53	1013.11	-31.95	157.06	31.41
0.86500	-103.43	-327.07	477.44	-53.35	-319.65	512.01	-24.51	-307.32	530.43	82.94	-275.99	777.29	89.79	-278.00	790.20	321.49	-305.06	1006.74	344.28	-293.05	1032.10	241.40	-259.45	1011.41	-31.87	156.58	31.69
0.87000	-95.21	-327.24	470.77	-45.56	-319.80	506.05	-17.04	-307.53	524.89	86.67	-276.54	773.51	93.41	-278.55	786.49	323.88	-305.68	1005.02	345.54	-293.47	1030.33	243.49	-260.44	1009.79	-31.96	156.12	32.09
0.87500	-86.58	-327.45	463.88	-37.39	-319.99	500.11	-9.15	-307.85	519.39	90.56	-277.02	769.63	97.14	-279.16	782.67	326.18	-306.17	1003.19	347.43	-293.89	1028.84	245.65	-261.33	1008.17	-31.90	155.64	32.44
0.88000	-76.90	-327.66	457.57	-29.02	-320.18	494.00	-1.17	-308.14	513.74	94.56	-277.57	765.66	101.03	-279.75	778.77	328.55	-306.64	1001.45	349.62	-294.26	1027.46	247.83	-262.35	1006.51	-31.93	155.19	32.75
0.88500	-67.29	-327.82	450.62	-20.38	-320.38	487.87	7.31	-308.34	508.17	98.74	-278.07	761.63	105.08	-280.41	774.76	330.97	-307.13	999.70	351.85	-294.29	1026.11	249.92	-263.35	1004.82	-31.71	154.72	33.08
0.89000	-57.33	-328.08	443.71	-11.21	-320.54	481.71	16.14	-308.50	502.39	103.10	-278.58	757.53	109.32	-281.02	770.71	333.51	-307.61	998.06	354.08	-294.54	1024.83	251.99	-264.31	1003.19	-31.69	154.22	33.43
0.89500	-46.98	-328.29	436.65	-1.52	-320.76	475.57	25.52	-308.69	496.72	107.71	-279.03	753.35	113.77	-281.68	766.66	336.10	-307.98	996.43	356.30	-294.47	1023.69	254.04	-265.29	1001.63	-31.66	153.70	33.77
0.90000	-36.20	-328.46	429.69	8.60	-320.98	469.43	35.38	-308.85	491.06	112.57	-279.42	749.23	118.37	-282.32	762.60	338.72	-308.32	994.91	359.33	-294.30	1023.00	256.18	-266.28	1000.19	-31.78	153.16	34.04
0.90500	-24.91	-328.74	422.73	19.11	-321.13	463.29	45.57	-309.02	485.40	117.61	-279.90	744.94	123.25	-282.85	758.57	341.33	-308.66	993.47	362.58	-294.10	1022.49	258.33	-267.20	998.72	-31.83	152.64	34.28
0.91000	-13.04	-329.05	415.91	29.94	-321.34	457.20	56.17	-309.07	479.76	122.83	-280.34	740.73	128.31	-283.44	754.51	343.95	-309.03	992.19	365.82	-293.87	1022.04	260.55	-268.12	997.25	-31.82	152.11	34.53
0.91500	-0.68	-329.24	409.15	41.26	-321.59	451.18	66.88	-309.16	474.05	128.26	-280.77	736.42	133.65	-284.01	750.43	346.60	-309.34	991.01	368.25	-293.65	1021.35	262.76	-269.04	995.63	-31.77	151.65	34.78
0.92000	12.18	-329.49	402.48	52.97	-321.78	445.25	78.12	-309.24	468.62	133.93	-281.21	732.29	139.18	-284.52	746.29	349.19	-309.63	989.98	370.46	-293.42	1020.69	265.07	-269.96	994.09	-31.69	151.20	35.08
0.92500	25.49	-329.70	395.89	65.25	-322.02	439.44	89.61	-309.32	463.15	139.86	-281.63	728.19	144.93	-285.04	742.17	351.84	-309.81	989.11	372.64	-293.13	1020.16	267.35	-270.76	992.62	-31.65	150.78	35.38
0.93000	39.32	-329.94	389.45	77.93	-322.27	433.76	101.80	-309.37	457.91	146.04	-282.04	724.14	150.87	-285.57	738.13	354.42	-310.03	988.38	374.84	-292.76	1019.79	269.72	-271.63	991.37	-31.64	150.31	35.75
0.93500	53.56	-330.14	383.09	91.21	-322.43	428.29	114.28	-309.35	452.76	152.52	-282.26	720.11	157.05	-285.99	734.15	357.07	-310.19	987.80	377.01	-292.74	1019.54	272.07	-272.34	990.15	-31.65	149.88	36.10
0.94000	68.33	-330.33	376.95	104.89	-322.63	423.02	127.29	-309.51	447.95	159.21	-282.60	716.16	163.46	-286.41	730.22	359.66	-310.34	987.37	379.17	-292.77	1019.45	274.44	-273.07	989.14	-31.65	149.44	36.51
0.94500	83.49	-330.48	370.97	119.15	-322.75	417.94	140.70	-309.55	443.26	166.17	-282.93	712.26	170.14	-286.79	726.29	362.24	-310.44	987.04	381.31	-292.77	1019.49	276.74	-273.87	988.19	-31.80	149.03	36.95
0.95000	99.18	-330.61	365.35	133.70	-322.88	413.11	154.71	-309.59	438.90	173.44	-283.38	708.43	177.10	-287.10	722.58	364.88	-310.55	986.90	383.41	-292.79	1019.67	279.05	-274.66	987.48	-31.88	148.58	37.47
0.95500	115.41	-330.73	359.92	148.67	-322.89	408.50	169.23	-309.58	434.70	180.99	-283.72	704.54	184.33	-287.43	718.88	367.48	-310.62	986.89	385.51	-292.77	1019.97	281.31	-275.46	986.88	-31.90	148.15	38.04
0.96000	132.30	-330.74	354.79	164.14	-322.96	404.18	184.13	-309.53	430.92	188.82	-283.99	700.79	191.83	-287.82	715.40	370.02	-310.64	987.11	387.58	-292.73	1020.45	283.62	-276.22	986.49	-31.81	147.74	38.65
0.96500	149.66	-330.77	349.96	180.08	-323.00	400.07	199.49	-309.47	427.31	196.93	-284.28	697.25	199.58	-288.15	711.93	372.51	-310.57	987.45	389.65	-292.63	1021.07	285.90	-276.85	986.16	-31.81	147.34	39.29
0.97000	167.50	-330.80	345.56	196.63	-323.01	396.39	215.27	-309.41	424.12	205.38	-284.70	694.06	207.64	-288.46	708.70	375.05	-310.49	987.96	391.69	-292.85	1021.84	288.25	-277.56	985.94	-31.92	146.96	39.92
0.97500	185.86	-330.74	341.57	213.52	-322.96	392.98	231.54	-309.22	421.21	214.11	-284.95	690.95	215.97	-288.83	705.54	377.64	-310.38	988.60	393.70	-292.84	1022.75	290.55	-278.21	985.79	-31.98	146.57	40.56
0.98000	204.68	-330.69	337.91	231.10	-322.81	390.14	248.02	-309.01	418.73	223.09	-285.30	688.00	224.57	-289.26	702.66	380.23	-310.30	989.39	395.63	-292.69	1023.82	292.85	-278.91	985.72	-32.11	146.21	41.17
0.98500	224.11	-330.58	334.83	248.48	-322.57	387.24	264.99	-308.72	416.70	232.25	-285.66	685.17	233.42	-289.61	699.94	382.82	-310.15	990.31	397.56	-292.55	1024.99	295.10	-279.55	985.74	-31.89	145.82	41.81
0.99000	244.01	-330.40	332.25	266.22	-322.35	384.88	282.42	-308.40	415.22	241.64	-286.15	682.77	242.53	-290.01	697.45	385.42	-310.00	991.35	398.66	-292.35	1025.98	297.34	-280.18	985.91	-31.55	145.41	42.49
0.99500	264.49	-330.21	330.29	284.26	-322.01	382.92	300.44	-307.92	414.24	251.29	-286.52	680.48	251.86	-290.37	695.17	387.92	-309.75	992.56	400.38	-292.12	1027.37	299.50	-280.78	986.22	-31.05	144.96	43.22
1.00000	285.41	-329.97	328.91	303.98	-321.71	382.53	318.80	-307.51	413.73	261.18	-286.89	678.49	261.41	-290.76	693.25	390.37	-309.57	993.92	402.22	-292.24	1028.98	301.67	-281.43	986.67	-31.39	144.51	43.96
1.00500	306.87	-329.68	328.16	324.18	-321.31	382.75	337.50	-307.06	413.73	271.30	-287.07	676.70	271.18	-291.14	691.53	392.88	-309.30	995.43	404.79	-292.09	1031.01	303.77	-282.03	987.24	-31.72	144.05	44.74
1.01000	328.78	-329.37	328.04	344.91	-320.96	383.64	356.51	-306.57	414.35	281.66	-287.46	675.33	281.16	-291.57	690.09	395.33	-309.02	997.06	406.69	-291.84	1032.91	305.86	-282.63	987.92	-32.18	143.60	45.55
1.01500	351.08	-329.10	328.54	365.41	-320.64	384.60	375.85	-306.03	415.56	292.26	-287.84	674.13	291.37	-291.89	688.86	397.69	-308.70	998.79	408.34	-291.61	1034.82	307.89	-283.18	988.67	-32.25	143.15	46.39
1.02000	373.81	-328.69	329.77	386.18	-320.32	386.21	395.49	-305.46	417.42	303.16	-288.24	673.23	301.79	-292.30	688.02	399.94	-308.38	1000.65	409.15	-291.37	1036.53	309.96	-283.82	989.52	-32.20	142.73	47.21
1.02500	396.83	-328.30	331.75	407.10	-319.90	388.41	415.50	-304.77	420.00	314.35	-288.50	672.50	312.42	-292.70	687.41	402.25	-308.00	1002.58	410.49	-290.77	1038.56	312.05	-284.39	990.43	-32.10	142.26	48.04
1.03000	420.22	-327.86	334.48	428.32	-319.34	391.41	435.77	-304.11	423.25	325.76	-288.95	672.28	323.28	-293.09	687.11	404.56	-307.62	1004.62	412.00	-290.38	1040.76	314.12	-285.04	991.40	-31.93	141.81	48.88
1.03500	443.90	-327.33	337.99	449.52	-318.92	394.70	456.25	-303.37	427.03	337.37	-289.29	672.29	334.36	-293.42	687.02	406.73	-307.25	1006.71	414.23	-290.08	1043.32	316.14	-285.63	992.32	-31.52	141.38	49.77
1.04000	467.92	-326.77	342.22	471.00	-318.57	398.90	476.95	-303.07	431.48	349.15	-289.70	672.74	345.67	-293.82	687.31	408.83	-306.86	1008.86	415.79	-289.74	1045.66	318.15	-286.22	993.32	-31.03	140.97	50.69
1.04500	492.33	-326.50	347.27	492.74	-318.19	403.68	497.82	-302.33	436.51	361.19	-290.08	673.32	357.13	-294.15	687.82	410.84	-306.42	1011.05	417.06	-289.43	1047.96	320.13	-286.77	994.31	-30.40	140.58	51.60
1.05000	516.89	-326.26	353.02	515.50	-317.68	409.88	518.84	-301.57	442.33	373.48	-290.62	674.23	368.78	-294.54	688.70	412.95	-306.06	1013.30	418.24	-289.12	1050.27	322.11	-287.29	995.38	-30.68	140.17	52.52
1.05500	541.69	-325.93	359.63	537.97	-317.12	416.39	539.93	-300.75	448.69	386.00	-291.11	675.33	380.65	-294.91	689.72	415.02	-305.63	1015.59	419.41	-288.44	1052.59	324.07	-287.75	996.36	-30.43	139.80	53.45
1.06000	566.52	-325.36	367.04	560.43	-316.82	423.86	560.06	-300.46	455.44	398.74	-291.71	676.85	392.73	-295.10	691.11	417.12	-305.22	1017.89	420.48	-287.99	1054.87	326.04	-288.20	997.34	-29.96	139.65	54.38
1.06500	590.91	-324.70	375.17	582.54	-316.55	431.74	581.13	-299.71	463.25	411.54	-292.19	678.69	405.00	-295.19	692.66	419.16	-304.85	1020.15	421.56	-287.61	1057.16	328.02	-288.55	998.18	-29.80	139.32	55.29
1.07000	615.38	-324.01	384.29	605.61	-316.16	440.96	602.12	-299.03	471.85	424.39	-292.67	680.92	417.36	-295.35	694.63	421.14	-304.52	1022.42	422.64	-287.21	1059.40	330.08	-289.04	998.97	-30.58	138.97	56.20
1.07500	639.97	-323.66	394.18	628.82	-315.73	450.83	624.15	-299.13	481.56	437.37	-293.07	683.37	429.86	-295.35	696.86	423.17	-304.19	1024.69	423.69	-286.83	1061.63	332.15	-289.45	999.67	-31.65	138.38	57.08
1.08000	665.68	-323.35	405.43	651.42	-315.35	461.37	644.27	-299.32	491.22	450.46	-293.51	686.13	443.04	-295.38	699.69	425.21	-303.89	1026.94	424.68	-286.43	1063.77	334.22	-289.86	1000.30	-30.54	138.28	58.06
1.08500	691.36	-323.01	417.42	673.28	-314.89	472.46	665.16	-298.77	502.02	463.67	-293.76	689.21	456.37	-295.35	702.75	427.35	-303.57	1029.13	425.62	-286.01	1065.83	336.33	-290.10	1000.85	-28.93	137.98	59.04
1.09000	716.65	-322.67	430.37	694.74	-314.61	484.32	685.86	-298.99	513.54	476.88	-294.07	692.72	469.75	-295.25	706.20	429.44	-303.23	1031.30	426.55	-285.99	1067.78	338.45	-290.34	1001.40	-27.29	137.68	60.07
1.09500	740.39	-322.34	443.76	716.28	-314.26	497.20	706.05	-298.76	526.12	490.08	-294.22	696.52	482.52	-295.13	709.69	431.55	-302.94	1033.40	427.55	-285.76	1069.65	340.63	-290.46	1001.87	-27.45	137.22	61.00
1.10000	763.68	-321.75	458.22	737.56	-313.93	510.84	724.87	-298.96	538.89	503.22	-294.48	700.71	495.15	-295.03	713.53	433.67	-302.70	1035.44	428.57	-285.38	1071.42	342.87	-290.50	1002.27	-27.47	136.95	61.91
1.10500	786.74	-321.00	473.54	758.97	-313.72	525.46	744.17	-299.13	552.38	516.26	-294.62	705.08	507.63	-294.74	717.64	435.76	-302.45	1037.42	429.70	-285.00	1073.10	345.31	-290.48	1002.49	-28.04	136.49	62.74
1.11000	810.11	-319.72	489.97	779.40	-313.52	540.68	763.33	-299.21	566.44	529.17	-294.68	709.92	519.99	-294.43	722.13	437.89	-302.24	1039.36	430.21	-284.59	1074.44	348.00	-290.38	1002.60	-27.30	136.01	63.36
1.11500	833.10	-319.23	507.33	799.22	-313.16	556.61	782.00	-298.89	581.18	541.88	-294.72	715.00	532.20	-294.21	726.94	440.08	-302.02	1041.25	431.30	-284.18	1075.89	350.92	-290.26	1002.57	-26.37	135.46	63.97
1.12000	855.52	-318.63	525.68	817.85	-312.81	573.02	799.12	-299.17	596.40	554.37	-294.69	720.67	544.28	-293.99	732.08	442.32	-301.80	1043.08	432.63	-283.76	1077.33	354.00	-290.21	1002.45	-24.56	135.07	64.55
1.12500	877.38	-317.95	544.80	836.35	-312.58	590.10	816.34	-299.59	612.10	566.63	-294.25	726.57	556.20	-294.08	737.43	444.68	-301.57	1044.88	434.74	-283.34	1078.93	357.18	-290.02	1002.31	-23.21	134.57	65.29
1.13000	899.31	-317.01	564.45	854.13	-312.33	607.65	833.06	-299.25	628.15	578.73	-293.67	732.78	567.97	-294.18	743.07	447.00	-301.37	1046.65	436.40	-282.90	1080.26	360.42	-289.84	1002.23	-21.35	134.09	65.96
1.13500	919.50	-316.00	584.63	871.10	-312.10	625.54	848.96	-298.86	644.66	590.58	-293.40	739.14	579.56	-293.79	748.90	449.43	-301.18	1048.38	437.93	-282.47	1081.49	363.68	-289.62	1002.26	-20.12	133.57	66.63
1.14000	938.85	-315.05	605.22	887.23	-312.15	643.71	864.08	-299.21	661.56	602.29	-293.14	745.78	590.94	-293.20	755.05	451.83	-300.98	1050.07	439.49	-282.05	1082.68	366.84	-289.40	1002.43	-18.87	133.08	67.40
1.14500	956.35	-314.08	626.20	902.50	-311.86	662.07	878.40	-298.96	678.65	614.66	-292.41	752.98	601.29	-293.04	761.24	454.27	-300.78	1051.73	441.10	-281.25	1083.86	369.93	-289.16	1002.59	-17.93	132.58	68.05
1.15000	973.48	-313.09	647.41	917.04	-311.55	680.52	892.16	-298.71	695.55	627.00	-291.94	760.43	611.32	-292.85	767.68	456.67	-300.55	1053.38	442.74	-280.74	1085.02	372.95	-288.91	1002.78	-16.65	132.18	68.74
1.15500	989.23	-312.02	668.73	930.82	-311.25	698.82	905.22	-298.57	712.11	638.03	-290.92	767.98	621.91	-292.58	774.58	459.02	-300.32	1055.01	444.34	-280.38	1086.18	376.03	-288.74	1002.83	-15.44	131.96	69.49
1.16000	1003.74	-311.02	689.82	943.76	-311.03	716.88	917.55	-298.41	728.38	647.80	-289.85	775.51	633.18	-291.83	781.94	461.27	-300.08	1056.63	445.89	-280.39	1087.33	379.17	-288.66	1002.85	-14.37	131.95	70.34
1.16500	1017.23	-310.58	710.48	955.88	-310.79	734.47	929.02	-298.49	744.37	657.94	-288.79	783.49	643.47	-291.48	789.42	463.43	-299.91	1058.19	447.45	-280.59	1088.51	382.37	-288.60	1002.76	-13.14	132.03	71.01
1.17000	1029.55	-309.59	730.57	967.16	-310.54	751.57	939.79	-298.46	759.98	667.91	-288.07	791.67	652.49	-290.64	796.87	465.42	-299.76	1059.75	448.95	-280.41	1089.72	385.49	-288.53	1002.71	-11.96	132.08	71.54
1.17500	1040.91	-308.80	749.88	977.66	-310.19	768.12	949.86	-298.41	775.25	678.22	-286.90	800.16	660.95	-289.74	804.46	467.32	-299.62	1061.30	450.38	-280.57	1090.94	388.47	-288.41	1002.73	-10.84	132.25	72.08
1.18000	1051.31	-308.02	768.32	987.25	-309.74	784.18	959.34	-298.14	789.91	687.21	-286.00	808.49	670.52	-288.39	812.40	469.03	-299.44	1062.91	450.91	-280.45	1091.87	391.30	-288.14	1002.93	-10.00	132.72	72.64
1.18500	1060.94	-307.28	785.87	996.14	-309.26	799.68	968.12	-297.75	804.31	696.48	-285.22	817.00	679.00	-287.00	820.31	470.70	-299.30	1064.55	451.14	-280.26	1092.78	394.09	-288.01	1003.27	-9.35	133.14	72.97
1.19000	1069.84	-306.43	802.60	1004.34	-308.66	814.59	976.19	-297.39	818.21	703.66	-284.03	825.15	687.68	-286.09	828.28	472.19	-299.13	1066.24	452.06	-280.04	1093.97	396.84	-287.80	1003.75	-8.91	133.62	73.63
1.19500	1078.00	-305.50	818.60	1012.04	-307.96	828.88	983.60	-296.85	831.98	711.08	-282.88	833.33	695.32	-285.29	836.14	473.64	-298.96	1068.01	453.13	-279.84	1095.33	399.64	-287.75	1004.33	-8.57	134.00	74.16
1.20000	1085.60	-304.61	833.86	1019.17	-307.30	842.62	990.67	-296.19	845.13	718.21	-282.63	841.43	703.28	-284.05	844.02	474.94	-298.76	1069.85	454.98	-279.60	1096.95	402.79	-287.65	1005.26	-8.30	134.54	74.97
1.20500	1092.45	-303.58	848.54	1025.91	-306.56	855.82	997.40	-295.46	857.86	725.83	-281.64	849.65	710.26	-283.30	851.80	476.26	-298.57	1071.81	456.25	-279.69	1098.45	405.61	-287.71	1006.20	-7.98	135.03	75.53
1.21000	1098.99	-302.60	862.47	1032.29	-305.84	868.49	1003.71	-294.65	870.08	732.49	-281.50	857.70	716.76	-282.70	859.49	477.62	-298.33	1073.83	458.08	-279.85	1100.19	408.52	-287.84	1007.43	-7.77	135.52	76.25
1.21500	1105.14	-301.55	875.80	1038.30	-305.01	880.68	1009.72	-293.94	882.01	738.71	-281.50	865.67	722.94	-282.71	867.08	479.00	-298.09	1075.98	459.28	-279.64	1101.82	410.68	-287.96	1008.42	-7.63	135.98	76.91
1.22000	1110.96	-300.46	888.45	1043.86	-304.17	892.47	1015.27	-293.07	893.54	743.49	-281.60	873.36	728.66	-282.28	874.49	480.24	-297.75	1078.17	460.30	-279.22	1103.42	413.30	-288.09	1009.80	-7.67	136.41	77.31
1.22500	1116.30	-299.24	900.65	1049.02	-303.19	903.90	1020.46	-292.05	904.69	748.68	-281.26	880.96	732.96	-282.40	881.63	481.45	-297.35	1080.47	460.54	-279.18	1104.84	415.37	-288.23	1011.00	-7.76	136.68	77.37
1.23000	1121.20	-298.02	912.39	1053.74	-302.24	914.96	1025.01	-291.07	915.55	752.55	-281.45	888.24	736.67	-282.67	888.59	482.70	-296.93	1082.79	460.54	-278.79	1106.23	417.52	-288.38	1012.35	-7.91	136.87	77.22
1.23500	1125.73	-296.80	923.67	1058.17	-301.25	925.65	1029.21	-290.03	925.99	756.95	-281.71	895.45	739.96	-282.96	895.44	484.08	-296.56	1085.17	460.52	-278.68	1107.66	419.31	-288.71	1013.62	-8.08	137.04	77.11
1.24000	1129.87	-295.56	934.45	1062.15	-300.25	936.00	1033.09	-289.20	936.14	759.96	-282.04	902.39	743.87	-283.37	902.23	485.42	-296.06	1087.56	461.27	-278.64	1109.32	421.27	-288.94	1015.06	-8.36	137.31	77.35
1.24500	1133.67	-294.25	944.66	1065.86	-299.27	945.89	1036.67	-288.25	945.83	763.52	-282.34	909.20	747.58	-283.14	908.87	486.67	-295.63	1089.98	462.24	-278.59	1111.07	423.18	-289.26	1016.57	-8.68	137.59	77.69
1.25000	1137.05	-293.03	954.46	1069.11	-298.33	955.42	1039.57	-287.42	955.28	766.76	-282.08	915.76	750.89	-282.92	915.27	487.85	-295.12	1092.40	463.15	-278.55	1112.81	424.92	-289.28	1018.08	-9.05	137.80	78.02
1.25500	1140.00	-291.74	963.76	1072.01	-297.31	964.48	1042.29	-286.51	964.24	769.78	-281.28	921.98	753.88	-283.42	921.40	488.94	-294.65	1094.79	463.97	-278.51	1114.56	426.49	-289.37	1019.60	-9.42	137.98	78.34
1.26000	1142.46	-290.40	972.75	1074.44	-296.36	973.20	1044.32	-285.69	972.94	772.43	-280.98	927.95	756.50	-282.86	927.28	489.94	-294.15	1097.09	464.68	-278.08	1116.29	427.92	-289.31	1021.15	-9.77	138.10	78.63
1.26500	1144.82	-289.19	981.18	1076.59	-295.34	981.44	1046.47	-284.94	981.10	774.90	-280.23	933.58	759.89	-282.15	932.97	490.80	-294.22	1099.35	465.32	-277.57	1117.97	429.24	-289.42	1022.69	-10.14	138.35	79.01
1.27000	1146.81	-287.88	989.33	1078.43	-294.28	989.31	1048.11	-284.13	988.90	778.02	-279.47	939.01	763.15	-281.39	938.45	491.51	-294.33	1101.47	465.86	-277.02	1119.60	430.81	-289.58	1024.40	-10.44	138.57	79.25
1.27500	1148.59	-286.58	996.99	1080.13	-293.22	996.74	1049.92	-283.23	996.08	781.02	-278.57	944.12	765.22	-280.64	943.50	492.17	-294.51	1103.53	466.30	-276.51	1121.16	432.45	-289.73	1026.14	-10.72	138.69	79.23
1.28000	1150.15	-285.37	1004.36	1081.46	-292.16	1003.82	1051.33	-282.42	1003.09	783.80	-277.74	948.94	766.94	-279.87	948.23	492.76	-294.54	1105.44	466.63	-276.00	1122.67	433.91	-289.89	1027.85	-10.99	138.73	79.21
1.28500	1151.38	-284.09	1011.45	1082.62	-291.10	1010.58	1052.35	-281.28	1009.75	785.54	-276.86	953.38	768.53	-279.05	952.64	492.07	-294.63	1107.00	466.92	-275.53	1124.11	434.47	-290.08	1029.12	-11.21	138.89	79.69
1.29000	1152.58	-282.84	1018.22	1083.58	-290.02	1017.04	1053.14	-280.37	1016.20	786.98	-276.02	957.52	771.00	-278.28	956.88	490.99	-294.70	1108.38	467.18	-275.04	1125.46	434.60	-290.24	1030.20	-11.45	139.15	80.47
1.29500	1153.35	-281.50	1024.75	1084.44	-288.94	1023.19	1053.85	-279.40	1022.11	788.29	-275.15	961.36	772.44	-277.46	960.69	489.76	-294.86	1109.72	467.41	-274.60	1126.72	434.68	-290.37	1031.22	-11.58	139.32	81.12
1.30000	1154.17	-280.29	1030.92	1085.17	-287.80	1028.99	1054.55	-278.21	1027.64	789.38	-274.32	964.92	773.56	-277.27	964.18	489.67	-294.46	1111.15	467.59	-274.16	1127.92	435.06	-290.49	1032.35	-11.71	139.32	81.43
1.30500	1154.57	-278.97	1036.87	1085.66	-286.68	1034.53	1055.24	-277.33	1032.79	790.32	-274.07	968.23	774.49	-277.12	967.37	489.68	-294.55	1112.56	467.70	-273.75	1129.07	435.46	-290.79	1033.50	-11.75	139.29	81.63
1.31000	1154.91	-277.67	1042.56	1086.06	-285.59	1039.73	1055.56	-276.34	1037.82	791.16	-273.90	971.31	775.31	-276.29	970.34	489.66	-294.26	1113.77	467.73	-273.42	1130.11	435.75	-291.15	1034.56	-11.76	139.22	81.84
1.31500	1155.03	-276.56	1047.95	1086.27	-284.47	1044.62	1055.83	-275.30	1042.63	791.94	-273.71	974.21	776.09	-276.00	973.10	489.60	-293.89	1114.94	467.70	-273.12	1131.10	435.93	-291.55	1035.53	-11.77	139.13	82.05
1.32000	1155.15	-275.36	1053.08	1086.53	-283.39	1049.20	1056.03	-274.11	1047.00	792.65	-273.50	976.90	776.80	-275.79	975.66	490.72	-292.94	1116.22	467.67	-272.86	1131.99	436.05	-291.71	1036.42	-11.67	138.93	82.14
1.32500	1155.23	-274.28	1057.83	1086.60	-282.37	1053.52	1056.03	-272.98	1051.15	793.22	-273.29	979.38	777.41	-275.56	978.04	490.84	-292.06	1117.17	467.64	-272.63	1132.84	436.08	-291.80	1037.21	-11.69	138.83	82.37
1.33000	1155.27	-273.22	1062.22	1086.66	-281.26	1057.54	1056.10	-272.06	1054.88	793.55	-273.85	981.68	777.75	-276.14	980.22	491.83	-291.57	1118.24	467.56	-272.44	1133.62	436.01	-291.92	1037.96	-11.67	138.65	82.48
1.33500	1155.12	-272.23	1066.32	1086.51	-280.27	1061.32	1055.90	-271.05	1058.55	793.81	-274.52	983.81	778.02	-276.82	982.24	491.90	-291.52	1118.99	467.42	-272.28	1134.34	435.85	-292.01	1038.66	-11.74	138.54	82.72
1.34000	1154.79	-271.14	1070.23	1086.35	-279.17	1064.85	1055.91	-269.97	1061.85	793.97	-275.22	985.81	778.19	-277.52	984.13	492.90	-291.37	1119.87	467.24	-272.14	1135.00	435.63	-292.07	1039.31	-11.70	138.37	82.83
1.34500	1154.41	-270.13	1073.83	1086.09	-278.08	1068.15	1055.60	-268.86	1065.06	794.13	-275.88	987.66	778.37	-278.22	985.88	492.96	-291.31	1120.49	467.07	-272.04	1135.59	435.42	-292.18	1039.86	-11.74	138.26	83.05
1.35000	1154.15	-269.14	1077.07	1085.85	-276.97	1071.17	1055.06	-267.56	1068.12	793.15	-276.56	989.35	777.27	-278.91	987.41	491.49	-291.20	1120.64	466.89	-271.98	1136.11	435.16	-292.29	1040.35	-11.80	138.27	83.34
1.35500	1153.81	-268.20	1080.02	1085.49	-276.01	1073.98	1054.59	-266.77	1070.90	791.96	-276.50	990.89	775.94	-279.63	988.76	489.71	-291.08	1120.73	466.68	-271.98	1136.56	434.90	-292.39	1040.78	-11.88	138.31	83.60
1.36000	1153.59	-267.27	1082.70	1085.19	-275.00	1076.51	1054.42	-265.50	1073.29	790.72	-277.15	992.29	774.53	-280.29	990.03	487.85	-290.92	1120.70	466.45	-271.95	1136.97	434.60	-292.51	1041.21	-11.91	138.42	83.90
1.36500	1153.12	-266.39	1085.20	1084.78	-274.01	1078.85	1054.20	-264.56	1075.48	790.57	-277.80	993.54	774.25	-280.25	991.22	487.26	-291.33	1121.00	466.19	-271.89	1137.35	434.25	-292.65	1041.60	-11.96	138.40	84.12
1.37000	1152.72	-265.53	1087.42	1084.44	-272.98	1080.95	1054.04	-263.44	1077.51	790.50	-278.53	994.71	774.13	-280.90	992.30	486.97	-291.91	1121.25	465.88	-271.82	1137.71	433.82	-292.74	1041.98	-12.03	138.38	84.33
1.37500	1152.11	-264.62	1089.51	1083.91	-272.01	1082.92	1053.38	-262.61	1079.54	791.56	-279.29	995.75	773.98	-281.69	993.21	487.90	-292.50	1121.80	465.55	-271.75	1138.05	433.40	-292.84	1042.30	-12.23	138.05	84.36
1.38000	1151.67	-263.77	1091.32	1083.39	-270.97	1084.73	1053.06	-261.54	1081.25	791.50	-279.26	996.69	773.84	-281.72	994.01	487.80	-292.96	1122.05	465.21	-271.73	1138.35	432.93	-292.92	1042.62	-12.40	137.97	84.51
1.38500	1151.24	-262.89	1092.96	1082.82	-270.05	1086.32	1052.33	-260.50	1082.90	791.34	-279.16	997.44	774.92	-281.61	994.78	487.46	-293.08	1122.25	464.87	-271.69	1138.63	432.45	-292.99	1042.90	-12.59	137.96	84.80
1.39000	1150.77	-262.03	1094.48	1082.37	-269.10	1087.73	1051.94	-259.60	1084.22	789.98	-279.11	998.09	774.88	-280.77	995.39	485.84	-292.95	1122.16	464.53	-271.64	1138.88	431.89	-293.06	1043.18	-12.56	138.12	85.15
1.39500	1150.23	-261.33	1095.82	1081.79	-268.24	1088.98	1051.09	-258.81	1085.54	789.59	-278.97	998.65	774.58	-279.75	995.85	485.20	-292.83	1122.35	464.17	-271.61	1139.11	431.37	-293.12	1043.44	-12.67	138.01	85.31
1.40000	1149.63	-260.47	1097.02	1081.31	-267.39	1090.05	1050.69	-257.85	1086.56	790.43	-278.89	999.18	774.26	-278.77	996.27	484.75	-292.59	1122.53	463.81	-271.53	1139.34	430.85	-293.18	1043.68	-12.74	137.88	85.45
1.40500	1149.16	-259.67	1097.95	1080.74	-266.61	1091.02	1050.12	-257.16	1087.60	790.26	-278.70	999.54	773.97	-277.79	996.57	484.36	-292.43	1122.73	463.45	-271.43	1139.58	430.37	-293.23	1043.91	-12.94	137.74	85.54
1.41000	1148.58	-258.88	1098.83	1080.26	-265.71	1091.79	1049.66	-256.20	1088.39	789.89	-279.33	999.85	774.95	-276.80	996.94	484.00	-292.82	1122.89	463.12	-271.35	1139.79	429.90	-293.29	1044.14	-12.94	137.77	85.75
1.41500	1147.98	-258.22	1099.49	1079.67	-264.94	1092.44	1049.20	-255.47	1089.02	788.39	-279.27	1000.03	774.84	-275.91	997.12	483.60	-292.84	1123.10	462.80	-271.23	1140.00	429.42	-293.34	1044.38	-12.95	137.77	85.85
1.42000	1147.48	-257.52	1099.94	1079.13	-264.22	1092.91	1048.79	-254.60	1089.33	787.84	-279.21	1000.20	775.72	-275.73	997.34	483.20	-292.74	1123.18	462.46	-271.13	1140.17	428.92	-293.35	1044.63	-12.99	137.87	86.07
1.42500	1147.00	-256.89	1100.22	1078.55	-263.54	1093.26	1048.36	-254.19	1089.61	787.55	-279.12	1000.24	775.49	-274.86	997.38	482.79	-292.63	1123.30	462.13	-271.03	1140.35	428.37	-293.38	1044.86	-13.12	137.81	86.19
1.43000	1146.53	-256.31	1100.32	1078.08	-262.79	1093.40	1047.65	-253.40	1089.77	787.14	-278.99	1000.22	775.02	-273.87	997.37	482.44	-292.54	1123.39	461.80	-270.90	1140.50	427.81	-293.36	1045.09	-13.20	137.73	86.30
1.43500	1145.86	-255.81	1100.30	1077.49	-262.23	1093.43	1047.10	-252.88	1089.92	786.70	-279.61	1000.11	774.58	-273.63	997.28	482.09	-292.49	1123.53	461.47	-270.76	1140.63	427.23	-293.37	1045.28	-13.29	137.63	86.41
1.44000	1145.36	-255.30	1100.07	1076.97	-261.61	1093.29	1046.62	-252.15	1089.79	786.19	-279.63	999.98	774.10	-272.77	997.14	481.70	-292.31	1123.61	461.11	-270.63	1140.72	426.65	-293.35	1045.48	-13.36	137.58	86.51
1.44500	1144.76	-254.84	1099.73	1076.36	-261.03	1093.06	1045.99	-251.52	1089.76	785.68	-278.75	999.78	773.60	-272.56	996.93	481.34	-292.22	1123.71	460.75	-270.49	1140.79	426.06	-293.31	1045.67	-13.50	137.48	86.59
1.45000	1144.26	-254.30	1099.28	1075.86	-260.38	1092.64	1045.26	-250.92	1089.52	785.20	-278.60	999.49	773.10	-272.50	996.65	480.88	-292.08	1123.80	460.39	-270.31	1140.87	425.48	-293.28	1045.80	-13.55	137.39	86.65
1.45500	1143.54	-253.98	1098.72	1075.24	-259.90	1092.16	1044.49	-250.56	1089.19	784.69	-278.50	999.08	772.60	-273.18	996.32	480.46	-291.99	1123.84	460.02	-270.17	1140.92	424.91	-293.28	1045.87	-13.64	137.29	86.69
1.46000	1143.10	-253.53	1097.99	1074.65	-259.29	1091.57	1044.00	-250.04	1088.60	784.15	-277.76	998.64	772.07	-273.23	995.95	480.03	-291.84	1123.83	459.66	-269.98	1140.96	424.30	-293.23	1045.95	-13.74	137.26	86.77
1.46500	1142.47	-253.21	1097.24	1074.01	-258.86	1090.94	1043.32	-249.68	1088.13	784.75	-277.56	998.23	771.54	-273.17	995.52	479.65	-291.77	1123.74	459.30	-269.81	1140.97	423.63	-293.20	1046.03	-13.91	137.11	86.88
1.47000	1142.00	-252.78	1096.34	1073.54	-258.27	1090.11	1042.92	-249.14	1087.45	784.27	-276.78	997.83	770.96	-273.87	995.05	479.24	-291.61	1123.60	458.92	-269.69	1140.92	422.95	-293.15	1046.10	-13.91	137.11	86.99
1.47500	1141.35	-252.57	1095.44	1072.89	-257.74	1089.30	1042.33	-248.80	1086.84	783.72	-275.90	997.33	769.12	-273.92	994.44	478.82	-291.49	1123.45	458.52	-269.53	1140.84	422.28	-293.10	1046.14	-13.97	136.95	86.98
1.48000	1140.93	-252.19	1094.35	1072.35	-257.26	1088.42	1041.77	-248.16	1085.98	783.16	-275.73	996.79	768.31	-274.62	993.88	478.35	-291.28	1123.28	458.10	-269.40	1140.77	421.62	-293.04	1046.14	-14.09	136.92	87.04
1.48500	1140.30	-251.85	1093.31	1071.63	-256.84	1087.55	1041.03	-247.62	1085.22	782.64	-275.59	996.14	767.70	-275.40	993.30	477.85	-291.11	1123.17	457.68	-269.28	1140.72	420.90	-292.99	1046.11	-14.23	136.84	87.11
1.49000	1139.77	-251.49	1092.19	1071.16	-256.31	1086.55	1040.51	-247.10	1084.20	783.24	-275.52	995.59	767.02	-276.17	992.69	477.32	-290.96	1123.02	457.25	-269.15	1140.64	420.18	-292.85	1046.06	-14.31	136.78	87.18
1.49500	1138.93	-251.31	1091.07	1070.50	-255.94	1085.56	1039.82	-246.83	1083.23	782.77	-275.38	994.98	766.35	-276.94	992.04	476.86	-290.30	1122.89	456.81	-269.03	1140.53	419.47	-292.75	1046.01	-14.35	136.73	87.24
1.50000	1138.37	-250.98	1089.85	1069.94	-255.50	1084.50	1039.19	-246.13	1082.19	782.13	-276.00	994.35	764.43	-277.72	991.27	476.45	-289.47	1122.63	456.36	-268.92	1140.40	418.77	-292.66	1045.96	-14.40	136.61	87.18
1.50500	1137.72	-250.79	1088.62	1069.26	-255.20	1083.46	1038.48	-245.80	1081.20	780.29	-275.98	993.59	763.65	-277.76	990.55	476.00	-289.20	1122.47	455.90	-268.83	1140.28	418.07	-292.63	1045.86	-14.44	136.62	87.20
1.51000	1137.25	-250.51	1087.26	1068.70	-254.76	1082.29	1038.00	-245.10	1080.10	778.33	-275.88	992.81	761.77	-277.73	989.75	475.54	-288.58	1122.22	455.48	-268.71	1140.16	417.39	-292.49	1045.72	-14.43	136.59	87.13
1.51500	1136.53	-250.35	1085.90	1068.08	-254.43	1081.12	1037.44	-244.65	1079.01	777.59	-276.47	992.03	760.93	-278.36	988.95	476.13	-287.90	1122.35	455.05	-268.64	1140.03	416.76	-292.39	1045.57	-14.51	136.39	86.97
1.52000	1135.97	-250.04	1084.42	1067.55	-254.07	1079.85	1037.11	-244.18	1077.71	776.92	-275.76	991.22	760.24	-278.36	988.15	476.97	-287.14	1122.45	454.61	-268.54	1139.87	416.15	-292.25	1045.41	-14.57	136.25	86.79
1.52500	1135.38	-249.93	1082.96	1066.95	-253.85	1078.59	1036.68	-243.95	1076.48	776.23	-275.55	990.37	760.71	-277.47	987.41	476.72	-286.49	1122.24	454.17	-268.43	1139.69	415.48	-292.09	1045.28	-14.64	136.31	86.89
1.53000	1134.96	-249.72	1081.30	1066.50	-253.60	1077.17	1036.40	-243.52	1074.98	775.48	-275.48	989.51	760.11	-277.24	986.63	476.30	-285.73	1121.96	453.73	-268.30	1139.46	414.80	-291.90	1045.11	-14.68	136.37	86.93
1.53500	1134.45	-249.69	1079.57	1066.00	-253.33	1075.73	1035.68	-243.17	1073.75	774.76	-274.61	988.58	759.39	-276.35	985.75	475.92	-285.09	1121.67	453.30	-268.18	1139.25	414.10	-291.74	1044.96	-14.86	136.30	86.96
1.54000	1134.08	-249.65	1077.70	1065.53	-253.13	1074.16	1035.09	-242.87	1072.32	775.14	-273.75	987.67	758.63	-275.37	984.81	476.65	-284.34	1121.68	452.84	-268.08	1139.01	413.46	-291.56	1044.77	-15.08	136.07	86.79
1.54500	1133.52	-249.68	1075.81	1064.95	-252.99	1072.58	1034.34	-242.73	1070.98	775.65	-272.84	986.73	759.18	-274.40	983.91	476.45	-283.63	1121.42	452.37	-267.88	1138.78	412.81	-291.46	1044.56	-15.35	136.03	86.84
1.55000	1133.01	-249.62	1073.84	1064.35	-252.76	1070.93	1033.81	-242.40	1069.49	776.16	-271.96	985.83	759.81	-273.47	983.05	475.98	-283.39	1121.06	451.93	-267.71	1138.46	412.20	-291.32	1044.33	-15.56	136.08	86.95
1.55500	1132.33	-249.70	1071.81	1063.78	-252.62	1069.22	1033.36	-242.60	1068.03	775.60	-271.05	984.85	759.30	-272.49	982.07	475.54	-283.34	1120.67	451.51	-267.60	1138.14	411.58	-291.16	1044.08	-15.72	136.08	86.97
1.56000	1131.85	-249.77	1069.70	1063.23	-252.45	1067.50	1032.97	-242.51	1066.49	774.89	-270.10	983.89	758.53	-272.24	981.06	475.01	-282.79	1120.25	451.08	-267.49	1137.79	410.96	-290.94	1043.82	-15.91	136.10	86.97
1.56500	1131.20	-249.89	1067.57	1062.71	-252.31	1065.73	1032.37	-242.71	1064.93	774.19	-269.20	982.91	757.81	-271.31	980.07	474.50	-282.61	1119.85	450.64	-267.39	1137.43	410.30	-290.75	1043.52	-16.08	136.12	86.98
1.57000	1130.78	-250.02	1065.41	1062.18	-252.21	1063.93	1031.71	-242.70	1063.36	773.45	-268.32	981.96	757.08	-270.32	979.14	473.93	-282.50	1119.39	450.19	-267.29	1137.06	409.62	-290.57	1043.19	-16.26	136.16	87.02
1.57500	1130.21	-250.22	1063.32	1061.67	-252.12	1062.08	1030.98	-242.67	1061.94	772.70	-268.14	981.03	756.41	-270.07	978.21	473.43	-282.42	1118.97	449.75	-267.19	1136.71	408.90	-290.37	1042.82	-16.36	136.16	87.07
1.58000	1129.73	-250.37	1061.28	1061.09	-252.03	1060.26	1030.45	-242.57	1060.33	771.97	-268.07	980.12	755.68	-269.95	977.28	472.97	-282.29	1118.56	449.25	-267.09	1136.37	408.18	-290.18	1042.49	-16.38	136.21	87.08
1.58500	1129.09	-250.57	1059.25	1060.57	-251.98	1058.41	1029.94	-242.47	1058.71	771.28	-267.93	979.21	754.94	-269.81	976.36	472.46	-282.24	1118.15	448.73	-266.98	1136.04	407.52	-290.00	1042.12	-16.38	136.26	87.04
1.59000	1128.53	-250.68	1057.26	1060.04	-251.95	1056.59	1029.34	-242.39	1056.91	770.58	-267.81	978.31	754.17	-269.73	975.45	471.94	-282.11	1117.70	448.18	-266.87	1135.69	406.87	-289.80	1041.79	-16.33	136.36	87.00
1.59500	1127.90	-250.86	1055.26	1059.52	-251.90	1054.79	1028.80	-242.46	1055.26	769.85	-267.70	977.42	753.41	-269.62	974.55	471.37	-282.09	1117.25	447.67	-266.77	1135.34	406.21	-289.64	1041.42	-16.34	136.43	86.98
1.60000	1127.30	-250.97	1053.31	1058.86	-251.84	1053.04	1028.35	-242.49	1053.46	769.04	-267.63	976.51	752.64	-269.52	973.65	470.76	-282.02	1116.84	447.16	-266.74	1135.03	405.52	-289.42	1041.11	-16.30	136.54	86.98
1.60500	1126.63	-251.18	1051.34	1058.23	-251.86	1051.28	1028.08	-242.51	1051.72	768.32	-267.51	975.57	751.84	-269.37	972.73	470.18	-281.95	1116.47	446.67	-266.72	1134.70	404.83	-289.21	1040.78	-16.29	136.62	86.97
1.61000	1126.02	-251.36	1049.38	1057.63	-251.88	1049.50	1027.73	-242.32	1049.85	767.50	-267.40	974.57	751.03	-269.27	971.81	469.70	-281.85	1116.11	446.17	-266.62	1134.41	404.13	-289.04	1040.50	-16.24	136.71	86.96
1.61500	1125.35	-251.58	1047.38	1057.11	-251.94	1047.70	1027.07	-242.32	1048.09	766.74	-267.28	973.56	750.24	-269.16	970.87	469.26	-282.30	1115.76	445.68	-266.55	1134.12	403.47	-288.86	1040.25	-16.25	136.75	86.93
1.62000	1124.78	-251.80	1045.35	1056.58	-252.06	1045.89	1026.29	-242.32	1046.45	765.92	-267.84	972.55	749.44	-269.06	969.94	468.78	-282.31	1115.42	445.17	-266.45	1133.86	402.80	-288.68	1039.99	-16.30	136.75	86.89
1.62500	1124.14	-251.95	1043.33	1055.98	-252.22	1044.09	1025.61	-242.25	1044.73	765.17	-267.78	971.54	748.66	-268.96	968.96	468.21	-282.23	1115.07	444.69	-266.31	1133.61	402.17	-288.46	1039.74	-16.34	136.78	86.85
1.63000	1123.56	-252.10	1041.30	1055.45	-252.29	1042.27	1025.13	-242.19	1043.00	764.36	-267.69	970.49	747.83	-268.89	967.98	467.76	-282.11	1114.76	444.20	-266.16	1133.35	401.49	-288.22	1039.52	-16.35	136.80	86.81
1.63500	1122.89	-252.30	1039.25	1054.80	-252.37	1040.45	1024.64	-242.29	1041.14	763.59	-267.56	969.42	747.02	-268.78	966.98	466.15	-282.08	1114.16	443.73	-266.04	1133.13	400.84	-288.05	1039.35	-16.37	136.98	86.92
1.64000	1122.30	-252.49	1037.14	1054.21	-252.38	1038.56	1024.01	-242.35	1039.40	761.70	-267.50	968.30	746.20	-268.71	966.00	465.50	-281.95	1113.83	443.28	-265.93	1132.90	400.24	-287.84	1039.21	-16.36	137.06	86.90
1.64500	1121.77	-252.68	1034.89	1053.49	-252.47	1036.66	1023.46	-242.53	1037.50	760.79	-267.46	967.20	745.41	-268.61	964.95	465.05	-281.86	1113.58	442.85	-265.79	1132.70	399.67	-287.59	1039.03	-16.46	137.09	86.82
1.65000	1121.28	-252.87	1032.66	1052.97	-252.58	1034.65	1022.88	-242.52	1035.64	759.91	-267.39	966.15	744.55	-268.55	963.91	465.73	-281.71	1113.63	442.42	-265.64	1132.49	399.08	-287.34	1038.84	-16.47	136.96	86.60
1.65500	1120.70	-253.08	1030.31	1052.37	-252.66	1032.64	1022.33	-242.33	1033.78	760.19	-267.28	965.12	743.75	-268.46	962.84	465.51	-281.59	1113.48	442.02	-265.52	1132.30	398.47	-287.13	1038.68	-16.63	136.89	86.52
1.66000	1120.04	-253.26	1028.06	1051.89	-252.74	1030.55	1021.75	-242.42	1031.95	759.51	-267.25	964.09	742.91	-268.43	961.82	465.03	-281.99	1113.22	441.59	-265.35	1132.09	397.88	-286.95	1038.54	-16.60	136.91	86.46
1.66500	1119.34	-253.47	1025.71	1051.25	-252.79	1028.51	1021.15	-242.52	1030.09	758.70	-267.21	963.01	742.10	-268.40	960.78	464.52	-281.96	1112.97	441.15	-265.20	1131.90	397.29	-286.73	1038.37	-16.69	136.93	86.39
1.67000	1118.66	-253.65	1023.40	1050.62	-252.85	1026.47	1020.62	-242.47	1028.16	757.86	-267.24	961.94	741.24	-268.38	959.75	464.01	-281.25	1112.68	440.69	-265.03	1131.67	396.67	-286.49	1038.18	-16.72	136.97	86.33
1.67500	1117.91	-253.83	1021.02	1049.97	-252.87	1024.41	1020.03	-242.51	1026.19	757.02	-266.54	960.84	740.39	-268.35	958.70	463.51	-281.04	1112.43	440.25	-264.83	1131.50	396.03	-286.21	1037.99	-16.81	137.01	86.27
1.68000	1117.22	-254.11	1018.70	1049.29	-252.88	1022.36	1019.34	-242.52	1024.32	756.14	-266.49	959.76	739.54	-268.37	957.67	461.90	-280.87	1111.82	439.81	-264.68	1131.30	395.41	-285.93	1037.87	-16.87	137.18	86.38
1.68500	1116.48	-254.35	1016.34	1048.69	-252.98	1020.25	1018.61	-242.49	1022.39	755.31	-266.45	958.68	738.71	-268.36	956.64	461.16	-281.19	1111.49	439.38	-264.55	1131.10	394.79	-285.77	1037.76	-16.91	137.24	86.38
1.69000	1115.78	-254.52	1014.10	1048.00	-253.04	1018.25	1017.86	-242.44	1020.58	754.41	-266.48	957.64	737.86	-268.37	955.62	460.75	-281.07	1111.21	438.95	-264.42	1130.85	394.17	-285.54	1037.68	-16.94	137.25	86.36
1.69500	1115.02	-254.72	1011.81	1047.39	-253.19	1016.18	1017.34	-242.37	1018.64	753.63	-266.46	956.57	737.04	-268.37	954.62	461.46	-280.92	1111.28	438.51	-264.27	1130.62	393.55	-285.31	1037.54	-16.94	137.14	86.16
1.70000	1114.32	-254.94	1009.60	1046.66	-253.26	1014.22	1016.77	-242.31	1016.76	752.73	-266.47	955.52	736.19	-268.40	953.62	461.21	-280.74	1111.09	438.07	-264.12	1130.40	392.96	-285.14	1037.32	-16.96	137.14	86.06
1.70500	1113.64	-255.03	1007.32	1045.99	-253.30	1012.20	1016.22	-242.31	1014.74	751.92	-266.49	954.44	735.40	-268.42	952.61	459.49	-280.58	1110.50	437.62	-264.02	1130.21	392.39	-284.93	1037.11	-16.97	137.37	86.13
1.71000	1112.98	-255.27	1005.11	1045.29	-253.50	1010.22	1015.62	-242.52	1012.75	751.03	-266.57	953.39	734.54	-268.48	951.59	458.76	-280.41	1110.15	437.18	-263.85	1130.01	391.79	-284.67	1036.94	-16.96	137.46	86.10
1.71500	1112.27	-255.37	1002.92	1044.64	-253.57	1008.21	1015.11	-242.48	1010.78	750.21	-266.57	952.32	733.70	-268.49	950.57	458.32	-280.26	1109.89	436.72	-263.70	1129.82	391.20	-284.35	1036.81	-16.92	137.50	86.03
1.72000	1111.56	-255.50	1000.76	1043.99	-253.74	1006.22	1014.54	-242.50	1008.97	749.33	-266.62	951.24	732.82	-268.51	949.55	458.98	-280.12	1109.95	436.30	-263.54	1129.59	390.57	-284.07	1036.64	-16.89	137.36	85.84
1.72500	1110.97	-255.52	998.52	1043.34	-253.89	1004.23	1014.07	-242.51	1006.99	748.52	-266.62	950.12	731.95	-268.51	948.51	458.71	-280.06	1109.77	435.86	-263.40	1129.39	389.98	-283.76	1036.44	-16.91	137.36	85.72
1.73000	1110.26	-255.72	996.32	1042.68	-254.07	1002.26	1013.26	-242.44	1005.23	747.67	-266.65	949.01	731.07	-268.53	947.43	458.26	-279.88	1109.50	435.46	-263.31	1129.20	389.40	-283.54	1036.25	-16.97	137.34	85.65
1.73500	1109.67	-255.87	994.03	1042.03	-254.19	1000.25	1012.55	-242.48	1003.35	746.83	-266.63	947.87	730.23	-268.53	946.34	456.72	-279.77	1108.91	435.04	-263.19	1129.00	388.84	-283.34	1036.05	-17.06	137.48	85.70
1.74000	1108.91	-256.11	991.77	1041.34	-254.28	998.26	1011.74	-242.71	1001.52	745.91	-266.68	946.73	729.33	-268.56	945.25	456.03	-279.19	1108.55	434.66	-263.01	1128.79	388.28	-283.07	1035.90	-17.13	137.49	85.68
1.74500	1108.38	-256.33	989.37	1040.68	-254.37	996.22	1011.24	-242.77	999.46	745.06	-266.66	945.56	728.50	-268.60	944.15	455.58	-279.00	1108.28	434.30	-262.85	1128.60	387.73	-282.79	1035.74	-17.22	137.53	85.61
1.75000	1107.59	-256.52	987.07	1039.93	-254.49	994.18	1010.61	-243.08	997.48	744.25	-266.67	944.41	727.60	-268.67	943.05	456.23	-278.86	1108.30	433.92	-262.71	1128.41	387.18	-282.54	1035.61	-17.27	137.39	85.39
1.75500	1106.81	-256.71	984.72	1039.29	-254.62	992.07	1010.05	-243.18	995.43	743.44	-266.68	943.25	726.78	-268.71	941.95	456.08	-278.78	1108.11	433.52	-262.57	1128.21	386.66	-282.27	1035.43	-17.28	137.39	85.26
1.76000	1105.93	-256.98	982.44	1038.64	-254.72	989.95	1009.19	-243.31	993.59	742.56	-266.74	942.14	725.84	-269.38	940.88	455.70	-278.62	1107.79	433.16	-262.37	1127.98	386.13	-282.05	1035.29	-17.29	137.37	85.20
1.76500	1105.23	-257.17	980.07	1038.07	-254.79	987.84	1008.59	-243.25	991.61	741.73	-266.74	941.04	724.99	-270.10	939.83	455.31	-278.48	1107.53	432.87	-262.25	1127.76	385.59	-281.85	1035.15	-17.33	137.39	85.17
1.77000	1104.58	-257.47	977.69	1037.39	-254.91	985.78	1007.73	-243.30	989.83	740.97	-267.41	939.95	724.17	-270.86	938.82	454.95	-277.87	1107.23	432.59	-262.08	1127.52	385.08	-281.67	1035.05	-17.45	137.38	85.17
1.77500	1103.89	-257.74	975.25	1036.74	-254.99	983.71	1007.17	-243.36	987.81	740.28	-268.09	938.87	723.42	-271.61	937.80	454.63	-277.64	1107.02	432.28	-261.96	1127.32	384.60	-281.46	1034.93	-17.57	137.42	85.11
1.78000	1103.24	-258.04	972.78	1036.07	-255.09	981.63	1006.45	-243.48	985.85	739.46	-268.80	937.86	721.63	-272.34	936.71	454.34	-277.47	1106.75	431.94	-261.82	1127.10	384.17	-281.30	1034.82	-17.70	137.35	84.91
1.78500	1102.45	-258.21	970.35	1035.42	-255.16	979.57	1005.94	-243.55	983.77	738.68	-269.46	936.89	719.75	-273.02	935.55	453.96	-277.37	1106.50	431.63	-261.65	1126.95	383.72	-281.07	1034.67	-17.77	137.30	84.69
1.79000	1101.77	-258.48	968.02	1034.79	-255.27	977.56	1005.39	-243.75	981.81	736.93	-270.17	935.84	717.87	-273.76	934.46	453.58	-277.22	1106.24	431.33	-261.48	1126.75	383.29	-280.85	1034.52	-17.82	137.26	84.49
1.79500	1100.99	-258.60	965.75	1034.14	-255.35	975.54	1004.88	-243.76	979.97	735.14	-270.84	934.78	717.03	-274.47	933.47	453.27	-277.08	1106.04	431.04	-261.37	1126.59	382.86	-280.66	1034.35	-17.84	137.29	84.38
1.80000	1100.38	-258.82	963.49	1033.51	-255.52	973.55	1004.37	-243.88	978.19	733.32	-271.54	933.69	716.31	-275.21	932.54	452.98	-276.93	1105.83	430.76	-261.21	1126.42	382.39	-280.47	1034.23	-17.87	137.33	84.34
1.80500	1099.75	-259.02	961.19	1032.90	-255.63	971.54	1003.83	-243.77	976.34	732.53	-271.65	932.71	715.65	-275.28	931.58	452.72	-276.80	1105.61	430.51	-261.02	1126.28	381.96	-280.28	1034.10	-17.94	137.36	84.27
1.81000	1099.14	-259.24	958.97	1032.31	-255.76	969.60	1003.23	-243.86	974.53	731.81	-272.25	931.75	714.96	-275.27	930.69	452.39	-276.63	1105.38	430.25	-260.88	1126.13	381.53	-280.09	1033.98	-17.99	137.40	84.23
1.81500	1098.53	-259.48	956.76	1031.85	-255.87	967.61	1002.61	-243.91	972.63	731.17	-272.31	930.78	714.25	-274.60	929.82	452.03	-276.51	1105.18	429.99	-260.75	1125.97	381.14	-279.90	1033.87	-18.01	137.46	84.17
1.82000	1097.89	-259.70	954.61	1031.26	-255.99	965.72	1002.08	-244.09	970.78	730.42	-272.89	929.87	713.52	-273.89	928.97	451.67	-276.38	1104.97	429.73	-260.56	1125.81	380.75	-279.66	1033.78	-18.03	137.53	84.11
1.82500	1097.25	-259.89	952.42	1030.72	-256.09	963.83	1001.73	-244.12	968.78	730.69	-272.31	929.06	713.86	-273.78	928.24	451.34	-276.22	1104.76	429.50	-260.43	1125.65	380.37	-279.46	1033.72	-18.07	137.75	84.21
1.83000	1096.57	-260.12	950.30	1030.06	-256.25	961.98	1001.35	-244.31	967.04	730.08	-271.64	928.20	714.34	-273.14	927.54	451.15	-276.04	1104.59	429.26	-260.25	1125.50	379.98	-279.29	1033.64	-18.11	137.92	84.28
1.83500	1095.96	-260.35	948.16	1029.56	-256.33	960.05	1000.92	-244.19	965.23	730.35	-271.50	927.40	714.88	-272.42	926.85	450.92	-275.86	1104.40	429.04	-260.09	1125.39	379.60	-279.11	1033.55	-18.11	138.11	84.37
1.84000	1095.37	-260.63	946.05	1028.97	-256.47	958.18	1000.23	-244.31	963.61	728.85	-271.54	926.46	714.35	-271.76	926.05	450.65	-275.69	1104.23	428.82	-259.95	1125.28	379.26	-278.92	1033.47	-18.15	138.16	84.31
1.84500	1094.81	-260.80	943.91	1028.48	-256.57	956.29	999.77	-244.22	961.79	729.05	-270.89	925.69	712.70	-271.00	925.11	450.33	-275.55	1104.04	428.61	-259.81	1125.18	378.89	-278.78	1033.43	-18.17	138.11	84.16
1.85000	1094.14	-261.15	941.78	1027.87	-256.77	954.45	999.03	-244.35	960.18	728.49	-270.25	924.88	711.88	-270.83	924.30	450.09	-275.42	1103.87	428.42	-259.64	1125.04	378.55	-278.60	1033.40	-18.26	138.12	84.10
1.85500	1093.54	-261.44	939.62	1027.40	-256.84	952.60	998.75	-244.37	958.33	727.86	-269.55	924.05	711.31	-270.72	923.51	449.86	-275.31	1103.72	428.20	-259.53	1124.94	378.20	-278.40	1033.36	-18.32	138.21	84.06
1.86000	1092.90	-261.72	937.51	1026.83	-256.95	950.84	998.08	-244.46	956.69	726.25	-269.99	923.20	711.70	-270.67	922.90	449.63	-275.13	1103.56	427.99	-259.42	1124.83	377.92	-278.24	1033.28	-18.43	138.40	84.09
1.86500	1092.41	-261.94	935.36	1026.36	-257.03	949.05	997.95	-244.59	954.94	725.55	-269.97	922.43	711.25	-270.61	922.19	449.38	-274.95	1103.43	427.76	-259.27	1124.73	377.61	-278.04	1033.22	-18.52	138.51	84.04
1.87000	1091.75	-262.20	933.30	1025.80	-257.19	947.31	997.19	-244.51	953.49	725.91	-269.95	921.84	709.62	-271.15	921.34	449.25	-274.83	1103.32	427.54	-259.10	1124.65	377.29	-277.77	1033.18	-18.65	138.39	83.84
1.87500	1091.08	-262.40	931.28	1025.38	-257.25	945.56	996.91	-244.36	951.88	726.41	-269.85	921.24	707.91	-271.75	920.49	449.02	-274.70	1103.22	427.33	-258.98	1124.58	376.97	-277.66	1033.13	-18.72	138.32	83.62
1.88000	1090.44	-262.65	929.34	1024.83	-257.43	943.94	996.44	-244.33	950.32	725.02	-270.39	920.48	707.18	-271.16	919.86	448.81	-274.56	1103.09	427.12	-258.83	1124.50	376.65	-277.54	1033.10	-18.82	138.38	83.56
1.88500	1089.89	-262.82	927.41	1024.39	-257.47	942.29	996.13	-244.08	948.89	723.47	-270.92	919.71	707.65	-271.56	919.43	448.53	-274.41	1102.98	426.91	-258.67	1124.42	376.39	-277.37	1033.02	-18.90	138.58	83.62
1.89000	1089.41	-263.03	925.52	1023.84	-257.56	940.74	995.79	-244.17	947.37	722.86	-270.95	919.12	707.33	-272.20	918.93	448.30	-274.29	1102.87	426.69	-258.54	1124.35	376.10	-277.20	1032.93	-18.98	138.71	83.58
1.89500	1088.86	-263.30	923.74	1023.42	-257.56	939.23	995.41	-244.01	945.99	722.42	-270.79	918.56	705.88	-272.81	918.25	448.06	-274.17	1102.78	426.48	-258.40	1124.31	375.82	-277.12	1032.87	-19.05	138.67	83.39
1.90000	1088.31	-263.54	922.06	1022.85	-257.66	937.87	995.19	-244.13	944.45	721.92	-271.31	918.05	705.24	-273.44	917.73	447.83	-274.03	1102.70	426.27	-258.25	1124.25	375.49	-276.94	1032.89	-19.10	138.78	83.37
1.90500	1087.80	-263.73	920.44	1022.41	-257.70	936.49	994.81	-243.90	943.19	720.50	-271.88	917.42	704.73	-273.48	917.25	447.63	-273.89	1102.61	426.08	-258.11	1124.20	375.18	-276.80	1032.94	-19.16	138.84	83.36
1.91000	1087.34	-263.90	918.86	1021.92	-257.86	935.18	994.34	-243.97	941.91	719.87	-272.48	916.94	704.23	-273.44	916.83	447.41	-273.70	1102.56	425.88	-257.97	1124.14	374.88	-276.72	1032.97	-19.21	138.93	83.34
1.91500	1086.79	-264.10	917.44	1021.60	-257.94	933.85	994.06	-243.96	940.75	719.43	-272.50	916.45	702.79	-273.96	916.26	447.16	-273.57	1102.49	425.68	-257.85	1124.10	374.64	-276.52	1032.97	-19.19	138.87	83.18
1.92000	1086.27	-264.36	916.04	1021.19	-258.05	932.66	993.48	-243.88	939.80	718.96	-272.46	916.01	702.22	-274.57	915.81	446.95	-273.46	1102.42	425.46	-257.74	1124.09	374.39	-276.37	1032.96	-19.27	138.88	83.10
1.92500	1085.70	-264.59	914.82	1020.83	-258.10	931.52	993.25	-244.01	938.70	718.53	-272.94	915.60	701.84	-274.02	915.40	446.73	-273.33	1102.39	425.26	-257.64	1124.11	374.15	-276.30	1032.95	-19.24	138.95	83.04
1.93000	1085.27	-264.82	913.55	1020.31	-258.14	930.55	992.68	-244.15	937.76	718.03	-272.93	915.20	701.42	-273.84	915.00	446.53	-273.18	1102.36	425.07	-257.51	1124.12	373.91	-276.15	1032.95	-19.36	138.99	82.98
1.93500	1084.78	-265.00	912.44	1019.92	-258.15	929.54	992.42	-244.37	936.64	717.59	-272.84	914.82	700.96	-274.29	914.62	446.39	-273.09	1102.35	424.90	-257.41	1124.12	373.70	-275.97	1032.94	-19.31	139.06	82.91
1.94000	1084.27	-265.27	911.31	1019.50	-258.21	928.59	991.79	-244.63	935.84	717.18	-272.26	914.40	700.52	-273.73	914.25	446.21	-273.01	1102.33	424.73	-257.31	1124.10	373.54	-275.78	1032.94	-19.40	139.05	82.83
1.94500	1083.78	-265.50	910.31	1019.22	-258.30	927.64	991.44	-244.71	934.98	716.78	-272.07	914.03	701.15	-273.47	914.03	446.11	-272.91	1102.34	424.56	-257.19	1124.11	373.32	-275.65	1032.95	-19.38	139.20	82.90
1.95000	1083.28	-265.64	909.29	1018.88	-258.40	926.77	991.04	-244.79	934.19	716.39	-272.06	913.62	700.95	-273.35	913.70	445.90	-272.81	1102.33	424.35	-257.06	1124.12	373.08	-275.45	1033.01	-19.47	139.23	82.88
1.95500	1082.91	-265.81	908.35	1018.54	-258.47	925.97	990.74	-244.72	933.52	716.01	-271.93	913.26	700.59	-272.67	913.33	445.75	-272.70	1102.35	424.17	-256.96	1124.12	372.83	-275.27	1033.05	-19.53	139.22	82.84
1.96000	1082.46	-265.97	907.46	1018.17	-258.50	925.18	990.23	-244.84	932.95	716.62	-271.82	913.02	700.24	-271.90	913.01	445.58	-272.56	1102.36	423.98	-256.85	1124.10	372.66	-275.13	1033.04	-19.58	139.20	82.77
1.96500	1082.06	-266.11	906.64	1017.74	-258.43	924.50	990.03	-244.66	932.27	716.36	-271.71	912.71	699.93	-271.70	912.67	445.45	-272.49	1102.37	423.81	-256.73	1124.13	372.50	-274.94	1033.08	-19.61	139.21	82.70
1.97000	1081.59	-266.27	905.88	1017.36	-258.47	923.84	989.89	-244.77	931.55	715.95	-271.54	912.45	699.56	-271.56	912.41	445.31	-272.38	1102.37	423.63	-256.55	1124.14	372.34	-274.85	1033.12	-19.61	139.25	82.63
1.97500	1081.23	-266.34	905.11	1017.01	-258.45	923.22	989.82	-244.77	930.88	714.65	-271.45	912.08	699.24	-271.41	912.16	445.09	-272.27	1102.35	423.44	-256.41	1124.19	372.14	-274.73	1033.12	-19.66	139.28	82.58
1.98000	1080.81	-266.41	904.43	1016.71	-258.47	922.64	989.38	-244.97	930.46	714.18	-271.38	911.88	699.92	-271.84	912.11	444.84	-272.16	1102.36	423.26	-256.31	1124.19	371.91	-274.61	1033.16	-19.72	139.42	82.71
1.98500	1080.43	-266.47	903.79	1016.44	-258.46	922.10	989.15	-244.85	929.95	713.90	-271.32	911.66	699.78	-271.87	911.96	444.61	-272.15	1102.35	423.04	-256.24	1124.21	371.67	-274.48	1033.16	-19.77	139.47	82.71
1.99000	1080.01	-266.53	903.22	1016.09	-258.49	921.65	988.64	-244.75	929.56	713.64	-271.28	911.49	698.43	-271.84	911.65	444.36	-272.04	1102.36	422.85	-256.10	1124.19	371.42	-274.36	1033.22	-19.84	139.35	82.59
1.99500	1079.73	-266.47	902.71	1015.83	-258.52	921.27	988.40	-244.60	929.16	713.40	-271.75	911.34	697.00	-272.29	911.33	444.19	-271.95	1102.38	422.65	-256.00	1124.20	371.20	-274.34	1033.23	-19.90	139.22	82.41
2.00000	1079.45	-266.48	902.24	1015.46	-258.46	920.96	987.70	-244.73	929.11	713.12	-271.80	911.27	696.61	-272.39	911.16	443.91	-271.88	1102.39	422.46	-255.89	1124.23	370.99	-274.23	1033.26	-20.02	139.17	82.39
2.00500	1079.18	-266.48	901.89	1015.30	-258.46	920.65	987.67	-244.62	928.76	712.85	-271.73	911.22	696.38	-272.31	911.11	443.72	-271.81	1102.41	422.24	-255.81	1124.30	370.81	-274.12	1033.25	-20.02	139.21	82.33
2.01000	1078.88	-266.47	901.60	1014.98	-258.42	920.42	987.38	-244.67	928.56	712.58	-271.79	911.17	696.06	-272.87	911.09	443.42	-271.73	1102.42	422.02	-255.69	1124.31	370.60	-274.09	1033.26	-20.03	139.24	82.32
2.01500	1078.69	-266.41	901.39	1014.76	-258.37	920.30	987.34	-244.69	928.27	712.37	-271.70	911.13	695.82	-273.53	911.08	443.20	-271.65	1102.45	421.80	-255.63	1124.33	370.39	-273.98	1033.30	-20.04	139.29	82.31
2.02000	1078.49	-266.35	901.20	1014.49	-258.36	920.21	986.84	-244.69	928.36	712.11	-271.64	911.13	695.60	-273.53	911.06	443.01	-271.55	1102.48	421.60	-255.55	1124.32	370.17	-273.87	1033.36	-20.13	139.25	82.33
2.02500	1078.25	-266.24	901.14	1014.26	-258.26	920.19	986.74	-244.52	928.30	711.93	-271.65	911.13	695.45	-273.50	911.08	442.90	-271.53	1102.51	421.37	-255.52	1124.38	369.95	-273.86	1033.35	-20.16	139.26	82.30
2.03000	1077.97	-266.23	901.10	1014.08	-258.26	920.14	986.47	-244.44	928.32	711.64	-271.61	911.17	695.20	-273.51	911.13	442.72	-271.46	1102.53	421.17	-255.48	1124.41	369.73	-273.79	1033.34	-20.16	139.26	82.30
2.03500	1077.79	-266.16	901.16	1013.92	-258.19	920.19	986.48	-244.10	928.34	711.46	-271.53	911.14	694.96	-273.55	911.16	442.53	-271.42	1102.55	420.96	-255.38	1124.46	369.56	-273.69	1033.37	-20.17	139.25	82.26
2.04000	1077.66	-266.14	901.25	1013.80	-258.22	920.25	986.14	-244.09	928.41	711.25	-271.55	911.13	694.78	-273.53	911.15	442.30	-271.29	1102.55	420.76	-255.30	1124.50	369.41	-273.58	1033.43	-20.17	139.24	82.25
2.04500	1077.54	-266.09	901.40	1013.69	-258.13	920.36	986.10	-244.03	928.45	711.14	-271.50	911.12	694.62	-273.47	911.17	442.11	-271.20	1102.61	420.54	-255.25	1124.55	369.25	-273.51	1033.49	-20.15	139.22	82.23
2.05000	1077.34	-266.13	901.61	1013.45	-257.99	920.53	985.94	-244.08	928.49	710.98	-271.50	911.16	694.47	-272.97	911.19	441.91	-271.05	1102.65	420.35	-255.15	1124.58	369.04	-273.34	1033.55	-20.11	139.23	82.25
2.05500	1077.20	-266.11	901.80	1013.31	-257.91	920.72	986.00	-243.95	928.65	710.85	-270.91	911.20	694.26	-272.28	911.24	441.68	-270.98	1102.73	420.18	-255.09	1124.61	368.83	-273.24	1033.62	-20.13	139.20	82.27
2.06000	1077.04	-266.12	902.11	1013.08	-257.86	921.00	985.87	-244.04	928.81	710.68	-270.81	911.27	694.09	-271.65	911.30	441.49	-270.87	1102.77	420.01	-254.99	1124.67	368.64	-273.26	1033.60	-20.10	139.19	82.27
2.06500	1076.94	-266.07	902.40	1012.95	-257.79	921.25	985.74	-243.91	929.11	710.54	-270.71	911.35	693.96	-270.93	911.36	441.29	-270.84	1102.83	419.84	-254.95	1124.73	368.47	-273.21	1033.61	-20.11	139.15	82.26
2.07000	1076.76	-266.11	902.76	1012.83	-257.72	921.51	985.34	-243.84	929.55	710.30	-270.71	911.47	694.81	-270.79	911.62	441.11	-270.73	1102.80	419.66	-254.81	1124.76	368.32	-273.15	1033.59	-20.10	139.24	82.38
2.07500	1076.63	-266.05	903.12	1012.78	-257.66	921.79	985.11	-243.81	930.00	711.17	-270.64	911.68	695.88	-270.83	911.88	441.04	-270.73	1102.86	419.46	-254.71	1124.80	368.17	-273.14	1033.62	-20.12	139.33	82.51
2.08000	1076.39	-266.02	903.54	1012.59	-257.63	922.17	984.89	-243.75	930.32	711.16	-270.14	911.81	696.92	-270.28	912.16	440.86	-270.67	1102.90	419.27	-254.65	1124.84	368.06	-273.00	1033.68	-20.14	139.45	82.65
2.08500	1076.25	-265.93	903.99	1012.44	-257.58	922.56	984.82	-243.68	930.54	711.10	-270.06	911.90	696.99	-269.63	912.28	440.73	-270.68	1102.99	419.07	-254.57	1124.91	367.90	-272.92	1033.74	-20.12	139.45	82.65
2.09000	1076.06	-265.93	904.48	1012.31	-257.58	922.97	984.71	-243.65	930.88	710.03	-270.05	911.93	695.84	-269.49	912.25	440.46	-270.63	1103.01	418.91	-254.50	1124.94	367.78	-272.85	1033.82	-20.12	139.29	82.54
2.09500	1076.03	-265.83	904.97	1012.25	-257.48	923.38	984.75	-243.62	931.26	709.86	-269.97	912.07	694.58	-269.45	912.23	440.27	-270.59	1103.05	418.71	-254.42	1124.99	367.65	-272.85	1033.84	-20.10	139.12	82.37
2.10000	1075.96	-265.76	905.45	1012.09	-257.44	923.90	984.73	-243.56	931.80	710.74	-269.97	912.43	694.34	-269.46	912.40	440.03	-270.58	1103.14	418.54	-254.38	1125.05	367.51	-272.79	1033.86	-20.15	139.09	82.36
2.10500	1075.96	-265.63	905.98	1011.87	-257.42	924.45	984.64	-243.31	932.29	710.78	-270.01	912.63	695.27	-269.43	912.74	439.88	-270.65	1103.26	418.35	-254.35	1125.13	367.33	-272.78	1033.85	-20.18	139.17	82.48
2.11000	1075.82	-265.50	906.54	1011.72	-257.43	925.02	984.49	-243.20	932.75	710.68	-270.64	912.86	695.36	-269.98	912.92	439.79	-270.62	1103.37	418.19	-254.27	1125.19	367.17	-272.74	1033.86	-20.23	139.15	82.50
2.11500	1075.72	-265.34	907.17	1011.63	-257.31	925.52	984.29	-243.08	933.16	709.69	-270.73	912.91	694.33	-270.60	912.96	439.71	-270.62	1103.45	418.01	-254.24	1125.24	367.03	-272.60	1033.91	-20.19	138.98	82.37
2.12000	1075.63	-265.28	907.77	1011.58	-257.21	926.06	984.17	-243.02	933.71	709.51	-270.20	913.14	693.13	-271.31	913.00	439.52	-270.56	1103.50	417.85	-254.15	1125.31	366.92	-272.46	1034.02	-20.22	138.81	82.24
2.12500	1075.64	-265.09	908.39	1011.57	-257.13	926.63	984.12	-242.92	934.30	709.43	-270.12	913.40	693.91	-271.40	913.40	439.31	-271.09	1103.56	417.68	-254.13	1125.39	366.79	-272.40	1034.10	-20.24	138.89	82.38
2.13000	1075.67	-264.95	909.04	1011.52	-257.05	927.29	983.99	-242.97	934.94	709.32	-270.21	913.70	694.00	-271.40	913.65	439.21	-271.11	1103.64	417.53	-254.10	1125.45	366.67	-272.40	1034.18	-20.29	138.87	82.42
2.13500	1075.63	-264.82	909.75	1011.53	-256.97	927.89	983.99	-242.92	935.46	709.27	-270.75	913.95	693.97	-271.97	913.87	439.03	-271.04	1103.72	417.38	-254.05	1125.49	366.53	-272.43	1034.20	-20.28	138.85	82.44
2.14000	1075.59	-264.71	910.49	1011.51	-256.88	928.50	983.83	-242.87	936.08	710.22	-270.33	914.26	692.90	-272.62	913.96	438.86	-270.92	1103.81	417.23	-254.02	1125.54	366.40	-272.45	1034.18	-20.26	138.67	82.32
2.14500	1075.52	-264.56	911.22	1011.52	-256.75	929.07	983.82	-242.72	936.71	710.34	-270.28	914.45	692.72	-272.76	914.16	437.64	-270.84	1103.58	417.08	-254.01	1125.60	366.34	-272.44	1034.17	-20.24	138.75	82.43
2.15000	1075.56	-264.50	911.88	1011.46	-256.74	929.70	983.65	-242.62	937.43	710.31	-270.33	914.69	692.64	-272.82	914.40	437.29	-270.82	1103.55	416.90	-253.93	1125.66	366.24	-272.39	1034.25	-20.29	138.72	82.47
2.15500	1075.58	-264.38	912.56	1011.33	-256.57	930.35	983.60	-242.62	937.96	709.35	-270.30	914.83	692.64	-272.87	914.60	437.12	-270.74	1103.59	416.72	-253.88	1125.74	366.12	-272.39	1034.34	-20.31	138.69	82.48
2.16000	1075.52	-264.21	913.25	1011.19	-256.48	931.04	983.53	-242.60	938.53	710.12	-270.23	915.19	692.59	-273.43	914.84	437.95	-270.63	1103.98	416.53	-253.85	1125.81	365.98	-272.37	1034.42	-20.34	138.52	82.35
2.16500	1075.46	-264.10	913.98	1011.11	-256.39	931.70	983.72	-242.41	938.98	710.23	-270.14	915.42	692.57	-272.97	915.07	438.02	-270.49	1104.12	416.37	-253.81	1125.90	365.89	-272.36	1034.44	-20.32	138.47	82.29
2.17000	1075.39	-264.02	914.70	1011.01	-256.35	932.38	983.66	-242.42	939.66	710.19	-270.13	915.64	692.49	-272.94	915.30	437.88	-270.41	1104.23	416.22	-253.80	1125.95	365.81	-272.36	1034.43	-20.37	138.40	82.27
2.17500	1075.38	-263.80	915.43	1011.11	-256.29	932.93	983.58	-242.38	940.32	709.28	-270.69	915.75	692.45	-272.92	915.56	437.77	-270.37	1104.30	416.09	-253.80	1126.01	365.68	-272.40	1034.46	-20.35	138.34	82.30
2.18000	1075.46	-263.65	916.07	1011.05	-256.33	933.53	983.29	-242.46	940.95	709.12	-270.28	915.99	692.46	-272.93	915.77	437.63	-269.79	1104.39	415.96	-253.76	1126.05	365.56	-272.37	1034.51	-20.37	138.29	82.33
2.18500	1075.47	-263.59	916.73	1011.03	-256.26	934.12	983.32	-242.32	941.44	709.13	-270.20	916.25	693.45	-272.37	916.14	437.51	-269.72	1104.43	415.84	-253.72	1126.13	365.43	-272.25	1034.58	-20.35	138.41	82.50
2.19000	1075.41	-263.54	917.40	1010.82	-256.13	934.81	983.26	-242.34	942.00	709.07	-270.24	916.49	693.56	-272.32	916.38	437.40	-269.68	1104.50	415.71	-253.64	1126.20	365.33	-272.18	1034.61	-20.40	138.39	82.52
2.19500	1075.36	-263.37	918.13	1010.76	-256.02	935.40	983.28	-242.20	942.60	709.07	-270.23	916.73	693.52	-272.36	916.63	437.35	-269.63	1104.61	415.62	-253.59	1126.30	365.27	-272.10	1034.67	-20.35	138.34	82.51
2.20000	1075.36	-263.29	918.80	1010.66	-256.03	936.03	983.01	-242.25	943.37	709.98	-269.74	917.10	692.53	-272.39	916.71	437.23	-269.61	1104.72	415.47	-253.50	1126.37	365.21	-272.03	1034.73	-20.41	138.14	82.38
2.20500	1075.31	-263.16	919.48	1010.66	-255.91	936.59	983.07	-242.22	943.96	710.12	-269.12	917.34	693.40	-271.84	917.05	437.15	-269.55	1104.85	415.34	-253.48	1126.44	365.16	-272.04	1034.79	-20.39	138.19	82.46
2.21000	1075.13	-263.04	920.23	1010.66	-255.96	937.22	982.85	-242.15	944.57	710.06	-269.14	917.60	693.55	-271.76	917.29	436.93	-269.48	1104.92	415.19	-253.40	1126.48	365.04	-271.95	1034.85	-20.41	138.18	82.52
2.21500	1075.11	-263.11	920.91	1010.73	-255.88	937.73	982.98	-242.10	944.99	710.01	-268.61	917.83	693.55	-271.81	917.52	436.77	-269.49	1104.98	415.07	-253.32	1126.56	364.91	-271.88	1034.89	-20.32	138.19	82.56
2.22000	1075.09	-263.06	921.58	1010.57	-255.85	938.37	982.85	-242.13	945.45	710.89	-268.59	918.21	692.51	-272.42	917.62	436.57	-269.55	1105.03	414.94	-253.21	1126.61	364.83	-271.80	1034.93	-20.31	138.07	82.45
2.22500	1075.12	-262.89	922.20	1010.48	-255.71	938.97	982.88	-242.02	945.82	711.98	-268.60	918.52	693.30	-272.46	917.96	436.44	-269.58	1105.11	414.82	-253.10	1126.69	364.77	-271.76	1034.96	-20.30	138.17	82.54
2.23000	1075.03	-262.87	922.84	1010.34	-255.69	939.57	982.63	-241.92	946.39	711.11	-268.63	918.60	693.40	-271.90	918.19	436.29	-269.51	1105.20	414.71	-253.03	1126.76	364.72	-271.73	1035.00	-20.34	138.13	82.55
2.23500	1074.94	-262.78	923.51	1010.45	-255.55	940.03	982.53	-241.72	946.90	710.98	-268.62	918.77	693.40	-271.27	918.37	436.21	-269.53	1105.30	414.60	-252.99	1126.82	364.63	-271.75	1035.02	-20.29	138.08	82.56
2.24000	1074.89	-262.77	924.09	1010.35	-255.52	940.55	982.51	-241.83	947.39	710.02	-268.68	918.84	692.39	-271.83	918.42	436.14	-269.47	1105.42	414.49	-252.93	1126.86	364.54	-271.73	1035.06	-20.28	137.90	82.43
2.24500	1074.91	-262.66	924.68	1010.39	-255.54	940.94	982.48	-241.83	947.72	709.91	-268.13	919.00	692.25	-271.37	918.55	436.12	-269.49	1105.56	414.39	-252.91	1126.93	364.41	-271.62	1035.10	-20.16	137.85	82.42
2.25000	1075.00	-262.70	925.16	1010.27	-255.55	941.37	982.44	-242.03	948.11	708.91	-268.11	919.05	693.21	-270.74	918.86	436.00	-269.46	1105.65	414.23	-252.85	1127.02	364.33	-271.52	1035.19	-20.12	137.95	82.53
2.25500	1075.03	-262.62	925.59	1010.29	-255.47	941.70	982.34	-241.98	948.50	709.68	-268.10	919.32	694.35	-270.66	919.18	435.90	-269.43	1105.73	414.12	-252.78	1127.10	364.26	-271.50	1035.27	-20.08	138.07	82.68
2.26000	1074.89	-262.56	926.07	1010.20	-255.45	942.14	982.21	-242.01	948.99	709.71	-268.16	919.50	694.42	-270.67	919.36	435.76	-269.42	1105.74	413.98	-252.72	1127.16	364.20	-271.45	1035.32	-20.13	138.05	82.68
2.26500	1074.83	-262.54	926.45	1010.17	-255.39	942.51	982.10	-242.06	949.33	710.65	-267.58	919.78	694.38	-270.07	919.52	435.69	-269.43	1105.81	413.87	-252.71	1127.23	364.12	-271.34	1035.31	-20.16	138.03	82.66
2.27000	1074.70	-262.45	926.92	1010.08	-255.42	942.87	981.88	-241.98	949.80	710.73	-267.55	919.96	694.29	-269.43	919.67	435.60	-269.37	1105.83	413.75	-252.70	1127.28	364.05	-271.29	1035.28	-20.15	137.98	82.63
2.27500	1074.69	-262.43	927.22	1010.00	-255.34	943.15	981.95	-241.95	950.00	711.67	-266.99	920.19	694.26	-268.78	919.76	435.52	-269.30	1105.92	413.64	-252.74	1127.31	363.98	-271.23	1035.28	-20.13	137.97	82.62
2.28000	1074.59	-262.45	927.53	1009.91	-255.37	943.38	981.82	-241.88	950.22	711.72	-266.99	920.31	694.17	-268.18	919.87	435.39	-269.25	1105.95	413.53	-252.71	1127.33	363.92	-271.15	1035.36	-20.10	137.96	82.62
2.28500	1074.56	-262.38	927.73	1009.85	-255.34	943.58	981.70	-241.90	950.33	711.65	-266.45	920.40	694.14	-268.71	919.93	435.26	-269.26	1106.01	413.41	-252.64	1127.37	363.86	-271.05	1035.37	-20.09	137.97	82.60
2.29000	1074.48	-262.43	927.94	1009.75	-255.36	943.73	981.64	-241.94	950.45	711.57	-266.40	920.49	695.05	-269.39	920.20	435.17	-269.19	1106.04	413.33	-252.58	1127.41	363.80	-270.95	1035.37	-20.04	138.10	82.72
2.29500	1074.42	-262.35	928.09	1009.71	-255.33	943.87	981.71	-241.73	950.56	711.50	-265.80	920.55	695.16	-269.42	920.30	435.06	-269.19	1106.07	413.24	-252.55	1127.46	363.70	-270.88	1035.36	-20.04	138.13	82.74
2.30000	1074.30	-262.40	928.15	1009.64	-255.33	943.95	981.86	-241.72	950.59	710.47	-266.28	920.52	695.09	-269.97	920.42	434.96	-269.13	1106.10	413.14	-252.46	1127.46	363.60	-270.88	1035.38	-20.05	138.16	82.76
2.30500	1074.31	-262.36	928.14	1009.63	-255.22	943.99	981.67	-241.55	950.66	710.26	-266.29	920.57	694.04	-270.62	920.35	434.86	-269.13	1106.14	413.04	-252.41	1127.46	363.51	-270.89	1035.37	-20.10	138.04	82.64
2.31000	1074.23	-262.33	928.09	1009.52	-255.22	944.00	981.43	-241.67	950.67	710.15	-266.29	920.61	692.81	-270.14	920.24	434.79	-269.10	1106.15	412.94	-252.38	1127.45	363.41	-270.83	1035.39	-20.13	137.90	82.50
2.31500	1074.13	-262.33	928.05	1009.44	-255.20	943.93	981.35	-241.64	950.63	711.01	-266.25	920.73	691.56	-270.06	920.08	434.74	-269.08	1106.17	412.83	-252.37	1127.45	363.32	-270.77	1035.39	-20.10	137.76	82.35
2.32000	1073.96	-262.39	928.02	1009.29	-255.20	943.85	981.23	-241.64	950.65	710.14	-266.27	920.65	691.33	-270.09	920.03	434.63	-269.04	1106.17	412.70	-252.31	1127.43	363.23	-270.80	1035.39	-20.07	137.74	82.31
2.32500	1073.86	-262.42	927.92	1009.28	-255.11	943.64	981.29	-241.69	950.51	709.96	-266.26	920.62	691.23	-270.07	920.03	434.54	-269.04	1106.17	412.58	-252.25	1127.42	363.17	-270.78	1035.32	-19.97	137.77	82.27
2.33000	1073.80	-262.45	927.69	1009.14	-255.16	943.49	981.09	-241.84	950.39	709.80	-266.84	920.58	692.13	-270.65	920.17	434.40	-269.01	1106.15	412.47	-252.14	1127.39	363.11	-270.75	1035.29	-20.00	137.91	82.37
2.33500	1073.64	-262.47	927.40	1009.05	-255.22	943.25	981.07	-242.00	950.02	710.55	-266.33	920.58	693.17	-271.28	920.32	434.35	-269.03	1106.14	412.37	-252.11	1127.40	362.99	-270.75	1035.27	-20.00	138.11	82.51
2.34000	1073.43	-262.62	927.07	1008.87	-255.27	943.01	980.79	-242.17	949.79	710.50	-266.78	920.50	694.20	-270.78	920.44	434.20	-268.97	1106.09	412.25	-252.08	1127.38	362.86	-270.70	1035.27	-20.06	138.29	82.67
2.34500	1073.19	-262.71	926.69	1008.86	-255.27	942.56	980.76	-242.16	949.33	710.36	-267.36	920.38	694.21	-270.65	920.34	434.09	-268.97	1106.03	412.14	-252.04	1127.37	362.73	-270.60	1035.23	-19.97	138.37	82.68
2.35000	1073.00	-262.86	926.21	1008.72	-255.39	942.10	980.54	-242.34	948.95	709.26	-267.43	920.09	693.02	-270.63	920.03	433.97	-268.91	1105.95	412.03	-252.00	1127.31	362.62	-270.54	1035.18	-19.95	138.26	82.54
2.35500	1072.85	-262.92	925.62	1008.52	-255.42	941.55	980.39	-242.29	948.40	708.89	-266.83	919.87	691.68	-270.08	919.63	433.90	-268.93	1105.95	411.94	-252.00	1127.25	362.55	-270.48	1035.14	-19.91	138.14	82.34
2.36000	1072.60	-263.03	924.99	1008.24	-255.62	941.00	979.98	-242.36	947.90	707.72	-267.32	919.50	691.23	-269.99	919.39	433.72	-268.86	1105.90	411.82	-251.95	1127.21	362.46	-270.41	1035.08	-19.93	138.13	82.27
2.36500	1072.33	-263.21	924.25	1008.12	-255.63	940.30	979.88	-242.35	947.16	707.38	-267.93	919.19	691.01	-269.99	919.12	433.53	-268.86	1105.87	411.71	-251.97	1127.17	362.35	-270.38	1035.00	-19.90	138.18	82.22
2.37000	1071.95	-263.42	923.45	1007.87	-255.71	939.58	979.69	-242.53	946.43	707.17	-268.56	918.86	690.74	-270.58	918.84	433.39	-269.33	1105.75	411.54	-251.95	1127.11	362.18	-270.35	1034.93	-19.90	138.23	82.17
2.37500	1071.69	-263.62	922.51	1007.64	-255.82	938.75	979.71	-242.51	945.53	707.80	-269.22	918.61	690.50	-271.21	918.52	433.23	-269.46	1105.68	411.40	-251.92	1127.05	362.01	-270.25	1034.86	-19.88	138.31	82.15
2.38000	1071.35	-263.83	921.53	1007.23	-256.07	937.88	979.33	-242.66	944.67	707.58	-269.87	918.25	690.15	-271.34	918.18	433.07	-269.42	1105.55	411.24	-251.90	1126.96	361.86	-270.16	1034.79	-19.85	138.36	82.09
2.38500	1071.02	-264.07	920.43	1007.02	-256.20	936.84	979.18	-242.55	943.66	706.23	-269.98	917.69	690.73	-271.42	917.93	432.89	-269.40	1105.46	411.10	-251.92	1126.91	361.73	-270.10	1034.70	-19.82	138.54	82.13
2.39000	1070.50	-264.33	919.30	1006.63	-256.33	935.76	978.67	-242.54	942.73	704.73	-270.54	917.07	689.46	-271.46	917.34	431.75	-269.31	1105.04	410.94	-251.90	1126.87	361.54	-269.98	1034.62	-19.81	138.58	82.10
2.39500	1069.96	-264.61	918.05	1006.29	-256.44	934.60	978.39	-242.39	941.60	704.09	-270.62	916.52	688.86	-272.09	916.79	431.38	-269.34	1104.90	410.78	-251.92	1126.81	361.34	-269.93	1034.52	-19.80	138.62	82.03
2.40000	1069.36	-264.84	916.69	1005.71	-256.67	933.41	977.76	-242.60	940.38	703.54	-270.67	915.97	688.41	-272.27	916.25	431.16	-269.35	1104.77	410.60	-251.90	1126.69	361.08	-269.84	1034.41	-19.81	138.68	81.98
2.40500	1068.80	-265.05	915.19	1005.26	-256.75	932.05	977.45	-242.60	938.87	702.99	-270.76	915.32	687.90	-272.34	915.66	431.97	-269.36	1104.94	410.41	-251.86	1126.58	360.90	-269.73	1034.32	-19.76	138.61	81.74
2.41000	1068.21	-265.34	913.59	1004.73	-256.88	930.61	976.85	-242.77	937.37	702.48	-270.94	914.59	687.33	-273.00	915.01	431.96	-269.30	1104.84	410.21	-251.87	1126.46	360.65	-269.63	1034.27	-19.76	138.63	81.63
2.41500	1067.55	-265.64	911.94	1004.28	-256.93	929.02	976.58	-242.78	935.72	701.88	-271.01	913.77	685.68	-272.62	914.16	431.74	-269.35	1104.72	409.98	-251.89	1126.37	360.39	-269.52	1034.18	-19.68	138.54	81.39
2.42000	1066.84	-265.91	910.12	1003.63	-257.09	927.42	975.89	-243.06	934.31	701.22	-271.06	912.90	684.84	-272.69	913.36	431.52	-269.33	1104.58	409.75	-251.84	1126.25	360.05	-269.38	1034.01	-19.76	138.50	81.27
2.42500	1066.04	-266.17	908.22	1003.05	-257.19	925.63	975.30	-243.01	932.64	701.41	-271.13	912.15	684.09	-272.26	912.54	431.30	-268.83	1104.42	409.50	-251.79	1126.15	359.71	-269.23	1033.89	-19.73	138.52	81.15
2.43000	1065.19	-266.41	906.19	1002.37	-257.36	923.74	974.42	-243.03	930.91	701.63	-271.17	911.33	683.30	-272.33	911.61	431.04	-268.70	1104.18	409.25	-251.76	1126.04	359.37	-269.09	1033.80	-19.71	138.54	81.05
2.43500	1064.28	-266.72	904.06	1001.78	-257.38	921.66	973.75	-243.01	928.81	700.91	-271.18	910.30	683.49	-272.93	910.79	430.77	-268.69	1103.96	408.98	-251.79	1125.91	359.04	-268.95	1033.72	-19.61	138.72	81.06
2.44000	1063.31	-266.97	901.74	1001.01	-257.50	919.53	972.78	-243.18	926.82	699.08	-271.28	909.00	683.76	-273.13	909.95	430.43	-268.60	1103.75	408.74	-251.78	1125.76	358.66	-268.78	1033.63	-19.67	138.86	81.11
2.44500	1062.28	-267.29	899.28	1000.24	-257.63	917.29	971.98	-243.38	924.65	697.11	-271.44	907.65	684.02	-273.26	909.04	430.06	-268.60	1103.57	408.48	-251.78	1125.62	358.26	-268.66	1033.52	-19.73	139.01	81.15
2.45000	1061.22	-267.55	896.67	999.30	-257.81	914.97	971.05	-243.70	922.46	695.98	-271.65	906.37	682.15	-273.42	907.71	429.64	-268.57	1103.34	408.19	-251.74	1125.47	357.85	-268.48	1033.43	-19.82	138.89	80.91
2.45500	1060.05	-267.80	894.04	998.42	-257.92	912.49	970.36	-243.70	920.04	694.93	-271.87	905.02	679.97	-273.59	906.21	429.19	-268.56	1103.07	407.89	-251.75	1125.36	357.43	-268.34	1033.32	-19.78	138.75	80.60
2.46000	1058.94	-268.04	891.16	997.42	-258.12	909.88	969.32	-243.94	917.52	693.80	-272.61	903.58	677.66	-273.83	904.69	428.78	-268.55	1102.76	407.59	-251.73	1125.22	356.99	-268.18	1033.20	-19.82	138.59	80.29
2.46500	1057.63	-268.35	888.26	996.38	-258.38	907.15	968.21	-244.05	914.86	692.61	-273.33	902.10	676.34	-274.00	903.22	428.41	-268.59	1102.50	407.32	-251.68	1125.07	356.54	-268.02	1033.14	-19.79	138.56	80.12
2.47000	1056.38	-268.69	885.08	995.20	-258.66	904.29	966.89	-244.45	912.03	691.27	-273.66	900.58	675.04	-274.78	901.76	428.11	-268.57	1102.24	407.04	-251.62	1124.89	356.11	-267.90	1033.09	-19.81	138.55	79.95
2.47500	1055.03	-269.09	881.76	993.98	-258.90	901.27	965.64	-244.48	909.10	689.97	-273.95	898.92	673.77	-275.54	900.17	427.78	-268.59	1102.00	406.78	-251.58	1124.73	355.63	-267.74	1033.00	-19.83	138.52	79.78
2.48000	1053.75	-269.36	878.20	992.70	-259.16	898.05	964.31	-244.84	906.01	688.58	-273.80	897.20	672.40	-276.38	898.56	427.49	-268.52	1101.70	406.54	-251.54	1124.56	355.12	-267.56	1032.90	-19.84	138.50	79.62
2.48500	1052.29	-269.70	874.57	991.31	-259.35	894.74	963.09	-245.16	902.85	687.19	-274.06	895.37	671.02	-276.74	896.85	427.23	-268.53	1101.42	406.29	-251.15	1124.39	354.56	-267.44	1032.83	-19.86	138.45	79.46
2.49000	1050.66	-269.97	870.84	989.89	-259.64	891.26	961.63	-245.64	899.53	685.69	-273.97	893.56	669.54	-276.61	895.11	426.87	-268.54	1101.11	406.04	-250.97	1124.17	354.04	-267.31	1032.78	-19.81	138.43	79.31
2.49500	1048.85	-270.38	866.96	988.49	-259.96	887.62	960.25	-246.10	895.99	684.19	-273.82	891.64	668.05	-276.35	893.27	426.47	-268.68	1100.81	405.78	-250.95	1123.97	353.53	-267.13	1032.67	-19.79	138.43	79.12
2.50000	1047.15	-270.64	862.77	987.08	-260.27	883.78	958.65	-246.43	892.36	683.59	-273.70	889.84	666.48	-276.16	891.41	426.04	-268.73	1100.44	405.54	-250.91	1123.75	353.01	-266.92	1032.57	-19.81	138.47	78.94
2.50500	1045.35	-270.96	858.47	985.53	-260.59	879.83	957.18	-246.81	888.62	682.10	-273.54	887.80	664.89	-275.95	889.48	425.74	-268.79	1100.09	406.13	-250.85	1123.81	352.45	-266.72	1032.46	-19.82	138.46	79.07
2.51000	1043.56	-271.27	853.97	983.79	-260.90	875.77	955.37	-247.34	884.89	681.38	-273.43	885.87	664.20	-275.78	887.71	425.40	-268.85	1099.70	406.13	-250.82	1123.64	351.90	-266.55	1032.36	-19.84	138.61	79.12
2.51500	1041.56	-271.64	849.46	981.97	-261.21	871.65	953.58	-247.75	881.01	679.73	-273.33	883.79	663.64	-275.59	885.92	425.07	-268.81	1099.35	405.89	-250.83	1123.39	351.38	-266.32	1032.21	-19.84	138.76	79.05
2.52000	1039.58	-271.86	844.62	980.08	-261.44	867.37	951.63	-248.26	876.96	678.88	-273.30	881.82	663.03	-275.47	884.06	424.75	-268.72	1098.94	404.80	-250.82	1122.85	350.82	-266.12	1032.06	-19.90	138.98	78.69
2.52500	1037.47	-272.10	839.70	978.20	-261.68	862.97	949.82	-248.53	872.82	677.13	-273.22	879.67	661.41	-275.32	882.00	424.37	-268.72	1098.54	404.30	-250.46	1122.51	350.29	-265.92	1031.91	-19.99	139.03	78.39
2.53000	1035.30	-272.20	834.55	976.26	-261.89	858.34	947.84	-248.86	868.49	675.28	-273.20	877.42	659.57	-275.30	879.87	424.03	-268.66	1098.11	404.06	-250.00	1122.22	349.68	-265.72	1031.75	-20.08	139.06	78.20
2.53500	1032.95	-272.44	829.40	974.28	-262.18	853.65	945.81	-249.31	864.10	673.34	-273.63	875.13	657.67	-275.24	877.70	423.61	-268.74	1097.62	403.84	-249.88	1121.94	349.09	-265.50	1031.56	-20.15	139.10	77.99
2.54000	1030.64	-272.54	823.99	972.21	-262.43	848.83	943.69	-249.74	859.48	671.32	-273.68	872.76	655.70	-275.18	875.48	423.18	-268.72	1097.08	403.61	-250.22	1121.65	348.45	-265.25	1031.45	-20.24	139.17	77.82
2.54500	1028.20	-272.68	818.62	970.08	-262.59	843.94	941.59	-250.02	854.80	669.22	-274.14	870.36	653.71	-275.61	873.21	422.77	-268.68	1096.55	404.25	-250.32	1121.60	347.82	-265.02	1031.37	-20.28	139.23	77.98
2.55000	1025.76	-272.72	812.99	967.90	-262.63	838.84	939.49	-250.11	849.97	667.10	-274.61	867.91	651.64	-276.10	870.90	422.39	-268.60	1096.08	405.08	-250.23	1121.60	347.19	-264.84	1031.32	-20.31	139.28	78.18
2.55500	1023.09	-272.92	807.37	965.56	-262.72	833.76	937.16	-250.26	845.33	664.94	-275.08	865.42	649.51	-276.58	868.53	422.06	-268.56	1095.66	405.11	-249.86	1121.36	346.53	-264.64	1031.20	-20.42	139.26	78.06
2.56000	1020.48	-271.98	801.51	963.17	-262.76	828.54	934.70	-250.30	840.45	662.67	-275.58	862.85	647.25	-277.06	866.12	421.68	-268.49	1095.18	404.04	-249.76	1120.79	345.92	-264.41	1031.06	-20.55	139.27	77.49
2.56500	1017.67	-272.16	795.65	960.74	-262.84	823.28	932.03	-250.51	835.50	660.37	-276.11	860.23	644.95	-277.55	863.66	421.33	-268.38	1094.69	402.80	-249.72	1120.16	345.31	-264.20	1030.94	-20.69	139.27	76.87
2.57000	1014.81	-272.23	789.57	958.30	-262.86	817.80	929.66	-250.66	830.05	657.94	-276.59	857.53	642.59	-278.05	861.16	420.97	-268.43	1094.15	402.40	-249.65	1119.76	344.72	-264.04	1030.82	-20.77	139.34	76.53
2.57500	1011.69	-272.27	783.48	955.71	-262.91	812.31	927.22	-250.76	824.70	655.47	-277.10	854.83	640.14	-278.55	858.58	420.62	-268.51	1093.66	403.07	-249.60	1119.68	344.11	-263.84	1030.72	-20.92	139.37	76.57
2.58000	1009.71	-272.27	776.84	952.91	-262.92	806.72	924.80	-250.93	819.24	652.93	-277.63	852.11	637.66	-279.03	855.97	420.36	-268.47	1093.17	403.11	-249.91	1119.39	343.51	-263.61	1030.60	-20.85	139.39	76.36
2.58500	1006.49	-272.50	770.54	950.02	-262.97	801.08	921.82	-251.13	813.96	650.40	-278.14	849.39	635.12	-279.52	853.37	420.06	-268.48	1092.70	402.99	-250.32	1119.04	342.95	-263.43	1030.48	-20.97	139.38	76.08
2.59000	1003.25	-272.57	764.05	947.13	-262.97	795.25	918.73	-250.99	808.56	647.85	-278.66	846.61	632.54	-279.98	850.76	419.74	-268.40	1092.18	402.07	-250.36	1118.41	342.35	-263.21	1030.38	-21.08	139.39	75.55
2.59500	998.88	-272.71	757.85	944.15	-262.95	789.35	915.48	-251.19	803.10	645.18	-279.19	843.83	629.90	-280.47	848.17	419.31	-268.36	1091.65	401.79	-250.30	1117.96	341.73	-263.03	1030.31	-21.35	139.43	75.28
2.60000	995.50	-272.85	751.18	941.11	-262.45	783.27	912.42	-251.28	797.47	642.53	-279.70	841.04	627.22	-280.97	845.51	418.91	-268.34	1091.04	401.68	-250.24	1117.53	341.13	-262.83	1030.21	-21.37	139.48	75.05
2.60500	991.84	-272.89	744.55	937.95	-261.99	777.14	909.24	-251.62	791.68	639.81	-280.25	838.29	624.54	-281.50	842.88	418.57	-268.37	1090.43	401.59	-250.23	1117.12	340.57	-262.66	1030.13	-21.35	139.58	74.81
2.61000	988.02	-273.01	737.76	934.65	-262.07	770.96	906.22	-251.88	785.72	637.11	-280.76	835.51	621.82	-282.03	840.23	418.24	-268.34	1089.81	401.48	-250.52	1116.68	340.04	-262.44	1029.99	-21.41	139.69	74.53
2.61500	984.18	-274.06	730.85	931.27	-262.15	764.69	902.86	-251.43	779.91	634.29	-281.30	832.70	619.09	-282.57	837.62	417.92	-268.30	1089.22	401.39	-250.58	1116.26	339.46	-262.23	1029.86	-21.48	139.76	74.28
2.62000	980.29	-274.23	723.78	928.49	-262.25	758.38	899.71	-250.74	773.99	631.42	-281.82	829.86	616.35	-283.10	834.99	417.55	-268.28	1088.60	401.28	-250.53	1115.81	338.87	-262.05	1029.70	-21.97	139.85	74.03
2.62500	976.26	-274.34	716.56	925.59	-262.42	751.99	895.97	-250.82	768.28	628.53	-282.40	827.01	613.52	-283.64	832.34	417.24	-268.22	1088.00	401.18	-250.50	1115.36	338.26	-261.87	1029.58	-22.57	139.90	73.78
2.63000	971.84	-274.55	709.48	921.84	-262.50	745.71	892.41	-251.14	762.38	625.52	-282.94	824.13	610.59	-284.18	829.66	416.91	-268.15	1087.39	401.08	-250.46	1114.90	337.68	-261.63	1029.46	-22.90	139.95	73.50
2.63500	967.55	-274.68	702.15	917.21	-262.71	739.35	889.62	-251.37	756.46	622.45	-283.48	821.24	607.54	-284.72	826.95	416.58	-268.12	1086.76	401.01	-250.46	1114.43	337.12	-261.39	1029.30	-22.83	139.94	73.21
2.64000	962.81	-274.57	695.17	912.51	-262.92	733.02	887.08	-251.77	750.44	619.34	-283.99	818.32	604.48	-285.25	824.26	416.27	-268.04	1086.10	400.96	-250.44	1113.95	336.59	-261.09	1029.15	-22.73	139.93	72.91
2.64500	958.25	-274.59	687.88	908.32	-263.08	726.66	883.18	-252.15	744.57	616.21	-284.51	815.43	601.37	-285.80	821.56	416.01	-268.02	1085.48	400.92	-250.44	1113.48	336.11	-260.89	1029.00	-22.98	139.95	72.58
2.65000	953.39	-274.67	680.82	904.13	-263.30	720.34	877.99	-252.26	738.96	613.06	-285.40	812.53	598.28	-286.30	818.88	415.72	-267.94	1084.84	400.90	-250.06	1113.03	335.62	-260.69	1028.83	-23.22	139.98	72.25
2.65500	948.66	-274.60	673.49	899.73	-264.11	714.08	872.68	-252.60	733.29	609.76	-286.30	809.63	595.05	-286.80	816.17	415.42	-267.93	1084.22	400.86	-249.93	1112.61	335.13	-260.46	1028.63	-23.48	140.02	71.88
2.66000	943.75	-274.79	666.30	895.28	-264.82	707.81	868.36	-252.61	727.62	606.46	-286.80	806.76	591.86	-287.26	813.51	415.15	-267.85	1083.57	400.82	-249.52	1112.18	334.67	-260.14	1028.44	-23.76	140.01	71.51
2.66500	938.75	-274.82	659.08	890.69	-264.90	701.60	864.14	-252.74	721.76	603.01	-287.30	803.94	588.60	-288.06	810.89	414.93	-267.79	1082.97	400.79	-249.05	1111.74	334.21	-259.87	1028.30	-24.03	140.02	71.14
2.67000	933.52	-274.90	652.05	886.16	-264.58	695.37	859.76	-253.73	716.05	598.82	-287.74	801.00	585.38	-288.56	808.32	414.63	-267.75	1082.34	401.54	-248.55	1111.50	333.76	-259.62	1028.18	-24.42	139.96	71.05
2.67500	928.23	-274.90	645.01	881.43	-264.54	689.25	855.38	-254.89	710.22	594.54	-288.17	798.09	582.07	-288.94	805.76	414.42	-267.73	1081.74	401.73	-248.06	1111.08	333.25	-259.37	1028.04	-24.78	139.90	70.79
2.68000	922.76	-275.05	638.25	876.72	-264.55	683.12	851.14	-255.21	704.37	591.05	-288.51	795.41	578.76	-289.28	803.22	414.17	-267.68	1081.07	402.48	-247.58	1110.81	332.74	-259.09	1027.89	-24.97	139.93	70.71
2.68500	917.27	-275.20	631.49	872.00	-264.61	676.96	846.86	-255.14	698.74	588.39	-288.88	793.02	574.64	-289.62	800.52	413.94	-267.63	1080.45	402.67	-247.12	1110.38	332.19	-258.86	1027.75	-25.09	139.90	70.33
2.69000	911.76	-275.38	624.83	868.02	-264.56	670.89	842.49	-255.36	693.19	585.79	-289.61	790.71	571.20	-289.95	798.07	413.71	-267.59	1079.82	403.44	-246.61	1110.14	331.62	-258.66	1027.59	-25.68	140.01	70.23
2.69500	906.23	-275.74	618.21	863.31	-264.44	664.85	837.55	-255.25	688.05	582.49	-289.98	788.30	567.80	-290.23	795.73	413.40	-267.55	1079.22	403.57	-246.11	1109.72	331.10	-258.43	1027.48	-25.91	140.03	69.96
2.70000	900.63	-275.94	611.82	858.45	-264.03	659.04	832.76	-255.27	682.69	579.03	-290.28	785.87	565.23	-290.48	793.68	413.14	-267.49	1078.62	403.50	-245.62	1109.27	330.63	-258.22	1027.38	-26.10	140.22	69.75
2.70500	894.90	-276.10	605.61	852.92	-263.91	653.22	828.21	-255.18	677.26	575.63	-290.17	783.54	561.99	-290.74	791.51	412.70	-267.49	1077.98	403.38	-245.52	1108.83	330.17	-257.95	1027.33	-25.78	140.34	69.46
2.71000	889.26	-276.31	599.42	848.02	-263.74	647.59	823.72	-254.52	671.89	571.41	-290.02	781.03	558.69	-290.95	789.35	412.35	-267.41	1077.37	403.29	-245.15	1108.42	329.63	-257.74	1027.25	-26.04	140.33	69.16
2.71500	883.51	-276.37	593.41	843.16	-263.71	641.95	819.12	-254.02	666.57	567.92	-290.24	778.80	555.28	-291.17	787.25	411.96	-267.35	1076.76	403.11	-245.07	1108.02	329.08	-257.51	1027.14	-26.20	140.41	68.81
2.72000	877.88	-276.46	587.41	838.86	-263.71	636.57	814.34	-254.20	661.50	564.45	-290.46	776.58	551.86	-290.98	785.22	411.65	-267.31	1076.26	402.94	-245.05	1107.63	328.51	-257.30	1027.07	-26.83	140.45	68.46
2.72500	872.14	-276.68	581.61	833.90	-264.12	631.11	809.72	-254.05	656.22	561.74	-290.64	774.63	548.41	-291.07	783.26	411.30	-267.28	1075.77	402.77	-245.04	1107.26	327.97	-257.17	1026.96	-26.79	140.64	68.08
2.73000	866.52	-276.72	575.70	828.92	-264.22	625.80	805.85	-253.25	651.45	558.38	-291.09	772.54	545.02	-291.24	781.37	410.95	-267.17	1075.30	402.60	-245.03	1106.91	327.39	-256.95	1026.92	-27.04	140.59	67.76
2.73500	860.69	-276.72	570.04	823.25	-264.25	620.53	801.97	-252.39	646.69	554.83	-291.66	770.50	541.63	-291.41	779.50	410.50	-267.08	1074.79	402.40	-245.01	1106.58	326.84	-256.71	1026.81	-26.83	140.55	67.39
2.74000	854.78	-275.94	564.51	818.17	-264.22	615.54	796.97	-251.78	642.29	551.31	-292.13	768.56	538.22	-291.54	777.66	410.12	-267.03	1074.32	402.15	-244.97	1106.26	326.27	-256.47	1026.76	-27.15	140.56	67.02
2.74500	848.83	-275.18	559.28	813.00	-264.22	610.71	791.06	-251.42	637.48	547.70	-292.21	766.66	534.82	-291.63	775.89	409.62	-267.02	1073.88	401.91	-244.94	1105.94	325.71	-256.25	1026.69	-27.17	140.75	66.67
2.75000	842.96	-274.22	554.06	807.80	-264.24	605.95	786.00	-251.46	633.01	543.42	-292.57	764.59	531.42	-291.71	774.21	409.18	-267.00	1073.47	401.64	-244.90	1105.63	325.09	-256.06	1026.68	-27.40	140.69	66.34
2.75500	837.06	-274.14	548.98	802.48	-264.24	601.38	781.92	-250.75	628.46	538.99	-293.01	762.55	527.99	-291.78	772.56	408.60	-266.99	1073.06	401.42	-244.89	1105.34	324.45	-255.84	1026.64	-27.68	140.57	66.03
2.76000	832.18	-273.95	543.92	797.22	-263.88	596.82	777.86	-250.17	624.43	534.62	-293.43	760.54	524.50	-291.82	770.97	408.06	-266.94	1072.64	401.12	-244.84	1105.05	323.85	-255.61	1026.60	-27.31	140.34	65.67
2.76500	827.17	-273.78	539.09	791.93	-263.84	592.34	772.12	-250.02	620.13	530.96	-293.81	758.80	520.98	-291.83	769.38	407.49	-266.88	1072.24	400.77	-244.81	1104.75	323.28	-255.27	1026.57	-26.61	140.44	65.29
2.77000	822.25	-273.56	534.21	786.69	-263.78	587.92	766.09	-250.58	616.23	527.43	-293.88	757.08	517.52	-291.82	767.86	406.93	-266.84	1071.83	400.38	-244.75	1104.43	322.70	-255.05	1026.57	-25.94	140.54	64.93
2.77500	815.28	-273.30	529.58	782.14	-263.34	583.89	761.00	-250.65	612.24	523.86	-293.88	755.48	514.04	-291.85	766.37	406.35	-266.75	1071.47	400.05	-244.72	1104.12	322.06	-254.82	1026.62	-27.47	140.57	64.62
2.78000	808.42	-272.95	524.92	777.72	-263.23	579.90	756.72	-250.08	608.60	520.31	-293.88	753.91	510.59	-291.87	764.93	405.89	-266.68	1071.09	399.77	-244.68	1103.83	321.40	-254.58	1026.68	-29.25	140.46	64.33
2.78500	801.60	-272.74	520.50	772.58	-263.11	575.88	752.98	-250.02	604.86	516.78	-293.57	752.34	507.09	-291.86	763.52	405.45	-266.65	1070.70	399.49	-244.65	1103.57	320.72	-254.36	1026.65	-30.37	140.29	63.99
2.79000	795.95	-272.45	516.01	766.67	-263.03	571.80	747.33	-250.83	601.25	513.97	-293.15	751.05	503.62	-291.82	762.14	405.01	-266.61	1070.32	399.19	-244.60	1103.30	320.10	-254.16	1026.64	-29.61	140.44	63.64
2.79500	790.26	-272.85	511.86	761.52	-263.00	567.99	741.46	-251.63	597.92	511.34	-292.74	749.85	500.21	-291.74	760.81	404.45	-266.60	1069.93	398.87	-244.56	1103.06	319.46	-253.99	1026.64	-29.46	140.65	63.31
2.80000	784.60	-273.23	507.69	756.42	-262.84	564.30	736.55	-251.90	594.54	508.64	-292.32	748.73	496.86	-291.66	759.51	403.85	-266.50	1069.60	398.54	-244.90	1102.81	318.85	-253.77	1026.73	-29.45	140.78	63.02
2.80500	778.75	-273.69	503.83	751.33	-262.75	560.66	732.63	-252.12	591.33	505.20	-291.90	747.39	493.52	-291.61	758.27	403.26	-266.45	1069.29	398.25	-244.97	1102.59	318.24	-253.55	1026.77	-29.79	140.64	62.72
2.81000	773.05	-273.22	500.02	745.48	-262.89	557.07	727.86	-252.19	587.96	501.69	-291.43	746.07	490.14	-291.52	757.07	402.73	-266.35	1069.00	397.96	-244.91	1102.35	317.67	-253.33	1026.81	-29.25	140.61	62.40
2.81500	767.39	-272.91	496.37	740.35	-262.75	553.74	721.94	-252.15	584.94	498.26	-291.21	744.80	486.74	-291.43	755.92	402.29	-266.31	1068.69	397.61	-244.89	1102.14	317.05	-253.10	1026.85	-29.21	140.66	62.05
2.82000	761.89	-272.60	492.74	735.35	-262.23	550.40	716.03	-252.17	581.75	494.85	-290.79	743.59	483.33	-291.32	754.81	401.83	-266.28	1068.34	396.47	-244.84	1101.69	316.38	-252.98	1026.93	-29.08	140.76	61.54
2.82500	756.29	-272.33	489.30	730.35	-261.93	547.16	711.17	-251.46	578.90	491.36	-290.58	742.42	480.03	-291.21	753.78	401.23	-266.25	1068.04	395.92	-245.19	1101.45	315.70	-252.79	1026.99	-29.20	140.72	61.21
2.83000	750.83	-271.99	485.86	725.42	-261.70	543.93	707.42	-250.47	575.92	487.98	-290.40	741.36	476.75	-291.06	752.82	400.58	-266.26	1067.73	395.60	-245.61	1101.29	315.06	-252.50	1027.01	-29.35	140.61	60.92
2.83500	745.29	-271.70	482.66	721.31	-261.09	541.11	703.91	-250.29	573.26	483.89	-290.22	740.11	473.56	-290.91	751.96	399.99	-266.25	1067.50	396.02	-245.68	1101.39	314.43	-252.29	1027.01	-30.52	140.30	60.77
2.84000	739.89	-271.33	479.55	717.31	-260.44	538.38	700.40	-250.05	570.53	480.56	-290.08	739.20	470.31	-290.74	751.12	399.45	-266.22	1067.25	395.82	-245.67	1101.28	313.84	-252.15	1027.04	-31.51	140.13	60.47
2.84500	734.40	-270.45	476.72	712.54	-259.71	535.64	695.97	-249.13	567.97	477.32	-289.87	738.32	467.16	-290.59	750.34	398.82	-266.23	1067.08	394.65	-245.65	1100.90	313.17	-251.97	1027.05	-31.72	140.10	59.99
2.85000	729.09	-269.60	473.88	707.80	-258.92	532.97	691.43	-248.06	565.49	474.88	-289.67	737.76	464.07	-290.43	749.59	398.11	-266.14	1066.90	393.25	-245.63	1100.47	312.48	-251.71	1027.08	-31.69	140.25	59.48
2.85500	723.81	-268.71	471.11	703.14	-258.25	530.38	687.10	-247.10	562.99	471.83	-289.43	737.02	461.01	-290.28	748.91	397.45	-266.12	1066.75	392.54	-245.25	1100.29	311.75	-251.46	1027.15	-31.82	140.26	59.16
2.86000	718.65	-267.81	468.47	699.39	-257.49	528.06	682.72	-245.93	560.61	468.78	-289.26	736.32	458.03	-290.10	748.27	396.85	-266.09	1066.59	392.80	-245.14	1100.42	311.07	-251.20	1027.32	-32.69	140.28	59.07
2.86500	714.60	-267.07	466.09	694.93	-256.80	525.65	678.41	-245.60	558.39	465.83	-289.03	735.58	455.09	-289.91	747.67	396.23	-266.11	1066.42	393.28	-245.49	1100.62	310.37	-250.92	1027.49	-31.91	140.27	59.05
2.87000	710.64	-266.26	463.78	690.54	-256.73	523.25	674.15	-245.35	556.21	462.89	-288.56	734.86	452.30	-289.68	747.07	395.54	-266.05	1066.26	393.08	-245.55	1100.59	309.65	-250.67	1027.66	-31.10	140.30	58.93
2.87500	706.82	-265.44	461.50	686.22	-256.70	520.97	670.06	-245.06	554.17	460.00	-288.27	734.14	449.60	-289.47	746.50	394.89	-266.04	1066.14	392.67	-245.89	1100.49	308.89	-250.47	1027.78	-30.31	140.30	58.76
2.88000	702.11	-264.59	459.15	682.05	-256.04	518.75	666.17	-244.83	552.14	457.17	-288.07	733.50	446.93	-289.26	745.95	394.26	-266.01	1066.04	392.23	-245.94	1100.40	308.20	-250.26	1027.93	-30.45	140.29	58.57
2.88500	697.55	-263.78	456.90	677.91	-255.75	516.61	662.28	-244.68	550.22	454.43	-287.84	732.87	444.27	-289.02	745.42	393.69	-265.99	1065.96	391.07	-245.91	1100.08	307.54	-250.09	1028.08	-30.49	140.28	58.21
2.89000	692.97	-262.95	454.78	673.04	-255.46	514.32	658.37	-244.51	548.31	451.67	-287.60	732.29	441.60	-288.79	744.89	393.06	-265.90	1065.86	390.48	-246.24	1099.94	306.90	-249.85	1028.23	-29.81	140.27	57.97
2.89500	688.51	-262.10	452.72	668.18	-255.21	512.13	654.56	-244.40	546.52	449.02	-287.32	731.70	438.99	-288.53	744.38	392.48	-265.84	1065.76	389.34	-246.29	1099.62	306.29	-249.62	1028.41	-29.10	140.25	57.63
2.90000	684.16	-261.80	450.72	664.30	-254.93	510.24	650.90	-244.16	544.87	446.43	-287.07	731.22	436.51	-288.21	743.93	391.90	-265.78	1065.65	388.71	-246.60	1099.48	305.65	-249.38	1028.57	-29.20	140.24	57.41
2.90500	679.97	-261.48	448.81	661.40	-254.70	508.73	647.34	-244.00	543.43	443.90	-286.82	730.73	434.06	-287.92	743.51	391.40	-265.79	1065.55	387.54	-246.67	1099.18	305.02	-249.17	1028.73	-30.14	140.18	57.06
2.91000	675.85	-261.22	446.98	658.58	-254.42	507.29	643.77	-243.79	541.99	441.33	-286.57	730.31	431.62	-287.64	743.10	390.82	-265.75	1065.43	386.95	-246.97	1099.09	304.38	-249.01	1028.89	-31.09	140.15	56.85
2.91500	671.80	-260.96	445.28	655.06	-254.18	505.81	640.33	-243.65	540.66	438.83	-286.28	729.86	429.17	-287.36	742.72	390.27	-265.72	1065.31	387.32	-247.03	1099.28	303.75	-248.91	1029.09	-31.34	140.07	56.85
2.92000	667.88	-260.72	443.69	651.53	-253.96	504.29	637.05	-243.52	539.19	436.37	-286.02	729.45	426.79	-287.07	742.37	389.68	-265.65	1065.21	387.13	-246.64	1099.31	303.19	-248.79	1029.28	-31.43	140.03	56.72
2.92500	664.13	-260.42	442.21	648.19	-253.43	502.93	633.87	-243.32	537.93	433.96	-285.70	729.02	424.51	-286.78	742.05	389.20	-265.59	1065.16	387.49	-246.53	1099.50	302.59	-248.66	1029.41	-31.58	139.95	56.69
2.93000	660.57	-260.14	440.91	644.92	-252.88	501.61	630.88	-243.16	536.72	431.61	-285.42	728.68	422.32	-286.49	741.77	388.71	-265.52	1065.12	386.53	-246.17	1099.30	302.03	-248.52	1029.54	-31.61	139.86	56.39
2.93500	657.17	-259.92	439.69	641.80	-252.65	500.43	627.88	-242.96	535.76	429.36	-285.10	728.39	420.20	-286.20	741.55	388.28	-265.49	1065.07	386.68	-246.10	1099.47	301.44	-248.44	1029.69	-31.66	139.77	56.33
2.94000	653.81	-259.70	438.60	638.71	-252.40	499.33	625.03	-242.65	534.83	427.22	-284.76	728.17	418.11	-285.96	741.34	387.80	-265.45	1065.03	386.46	-245.72	1099.54	300.89	-248.35	1029.83	-31.69	139.69	56.18
2.94500	650.64	-259.47	437.53	635.78	-252.11	498.34	622.18	-242.43	533.93	425.14	-284.43	727.89	416.04	-285.68	741.13	387.23	-265.45	1064.98	386.77	-245.62	1099.80	300.33	-248.24	1029.92	-31.72	139.63	56.13
2.95000	647.55	-259.27	436.58	632.97	-251.84	497.46	619.60	-242.21	533.13	423.07	-284.12	727.65	413.95	-285.38	740.92	386.65	-265.42	1064.96	386.50	-245.95	1099.87	299.81	-248.08	1030.08	-31.82	139.52	55.98
2.95500	644.70	-259.04	435.73	630.33	-251.59	496.61	617.07	-242.08	532.30	421.08	-283.79	727.40	412.02	-285.10	740.76	386.11	-265.37	1064.99	385.30	-246.07	1099.68	299.22	-247.99	1030.23	-31.85	139.44	55.67
2.96000	641.89	-258.82	434.99	627.80	-251.35	495.86	614.69	-241.84	531.53	419.15	-283.77	727.21	410.21	-284.84	740.65	385.61	-265.31	1065.03	384.70	-246.39	1099.64	298.66	-247.86	1030.35	-31.95	139.36	55.49
2.96500	639.30	-258.57	434.24	625.38	-251.12	495.14	612.42	-241.61	530.87	417.41	-283.49	727.03	408.50	-284.54	740.53	385.12	-265.29	1065.06	383.56	-246.50	1099.45	298.14	-247.67	1030.42	-31.95	139.29	55.18
2.97000	636.88	-258.31	433.61	623.10	-250.86	494.55	610.22	-241.28	530.37	415.76	-283.21	726.89	406.80	-284.26	740.39	384.59	-265.28	1065.04	382.94	-246.80	1099.38	297.66	-247.46	1030.49	-31.96	139.21	54.98
2.97500	634.61	-258.18	433.00	620.94	-250.74	493.97	608.26	-241.11	530.01	414.15	-283.07	726.75	405.17	-284.12	740.23	384.06	-265.26	1065.06	381.72	-247.09	1099.19	297.17	-247.37	1030.60	-31.98	139.10	54.67
2.98000	632.49	-258.10	432.55	618.93	-250.61	493.55	606.42	-241.02	529.51	411.93	-282.96	726.40	403.70	-284.00	740.11	383.46	-265.29	1065.08	381.06	-247.44	1099.14	296.65	-247.33	1030.70	-32.12	138.92	54.53
2.98500	630.56	-257.99	432.05	617.01	-250.50	493.13	604.66	-240.87	529.06	410.36	-282.87	726.25	402.25	-283.87	740.02	382.94	-265.31	1065.14	380.59	-247.90	1099.19	296.18	-247.23	1030.77	-32.07	138.82	54.37
2.99000	628.82	-257.83	431.71	615.28	-250.39	492.80	602.99	-240.77	528.62	408.97	-282.78	726.18	400.85	-283.73	739.98	382.44	-265.29	1065.17	380.12	-247.89	1099.21	295.69	-247.08	1030.84	-31.99	138.76	54.24
2.99500	627.98	-257.65	431.51	614.45	-250.24	492.61	602.11	-240.69	528.47	408.92	-282.77	726.35	400.12	-283.51	739.95	382.23	-265.26	1065.19	379.89	-248.42	1099.24	295.45	-246.97	1030.87	-31.83	138.84	54.15
3.00000	627.98	-257.65	431.51	614.45	-250.24	492.61	602.11	-240.69	528.47	408.92	-282.77	726.35	400.12	-283.51	739.95	382.23	-265.26	1065.19	379.89	-248.42	1099.24	295.45	-246.97	1030.87	-31.83	138.84	54.15
 